Reflectivity signal measured in H2O ice compressed at 84 GPa
Measurement conducted by Sergey Nikitin in May 2014
Time (ns)	Amplitude (V)
-2.647324e-01 	 6.333700e-05
-2.636901e-01 	 6.337900e-05
-2.626479e-01 	 6.339800e-05
-2.616056e-01 	 6.337100e-05
-2.605634e-01 	 6.342400e-05
-2.595211e-01 	 6.342000e-05
-2.584789e-01 	 6.340400e-05
-2.574366e-01 	 6.341400e-05
-2.563944e-01 	 6.342200e-05
-2.553521e-01 	 6.337700e-05
-2.543099e-01 	 6.336900e-05
-2.532676e-01 	 6.340300e-05
-2.522254e-01 	 6.340800e-05
-2.511831e-01 	 6.334900e-05
-2.501409e-01 	 6.331500e-05
-2.490986e-01 	 6.329200e-05
-2.480563e-01 	 6.327100e-05
-2.470141e-01 	 6.329600e-05
-2.459718e-01 	 6.334800e-05
-2.449296e-01 	 6.333800e-05
-2.438873e-01 	 6.333200e-05
-2.428451e-01 	 6.333000e-05
-2.418028e-01 	 6.335400e-05
-2.407606e-01 	 6.331600e-05
-2.397183e-01 	 6.333500e-05
-2.386761e-01 	 6.335600e-05
-2.376338e-01 	 6.339100e-05
-2.365916e-01 	 6.333200e-05
-2.355493e-01 	 6.333300e-05
-2.345070e-01 	 6.338200e-05
-2.334648e-01 	 6.337500e-05
-2.324225e-01 	 6.338200e-05
-2.313803e-01 	 6.341100e-05
-2.303380e-01 	 6.340900e-05
-2.292958e-01 	 6.340300e-05
-2.282535e-01 	 6.342800e-05
-2.272113e-01 	 6.337200e-05
-2.261690e-01 	 6.342100e-05
-2.251268e-01 	 6.338000e-05
-2.240845e-01 	 6.333800e-05
-2.230423e-01 	 6.332900e-05
-2.220000e-01 	 6.336400e-05
-2.209578e-01 	 6.339200e-05
-2.199155e-01 	 6.339900e-05
-2.188732e-01 	 6.331500e-05
-2.178310e-01 	 6.331500e-05
-2.167887e-01 	 6.329200e-05
-2.157465e-01 	 6.329400e-05
-2.147042e-01 	 6.323900e-05
-2.136620e-01 	 6.325000e-05
-2.126197e-01 	 6.324100e-05
-2.115775e-01 	 6.326300e-05
-2.105352e-01 	 6.325400e-05
-2.094930e-01 	 6.327100e-05
-2.084507e-01 	 6.331900e-05
-2.074085e-01 	 6.330300e-05
-2.063662e-01 	 6.324900e-05
-2.053239e-01 	 6.326400e-05
-2.042817e-01 	 6.327300e-05
-2.032394e-01 	 6.325400e-05
-2.021972e-01 	 6.329300e-05
-2.011549e-01 	 6.328300e-05
-2.001127e-01 	 6.328700e-05
-1.990704e-01 	 6.323400e-05
-1.980282e-01 	 6.319400e-05
-1.969859e-01 	 6.317300e-05
-1.959437e-01 	 6.319700e-05
-1.949014e-01 	 6.317500e-05
-1.938592e-01 	 6.318000e-05
-1.928169e-01 	 6.317700e-05
-1.917747e-01 	 6.319500e-05
-1.907324e-01 	 6.313900e-05
-1.896901e-01 	 6.314200e-05
-1.886479e-01 	 6.314500e-05
-1.876056e-01 	 6.316600e-05
-1.865634e-01 	 6.323300e-05
-1.855211e-01 	 6.321700e-05
-1.844789e-01 	 6.324000e-05
-1.834366e-01 	 6.322900e-05
-1.823944e-01 	 6.318600e-05
-1.813521e-01 	 6.317100e-05
-1.803099e-01 	 6.318000e-05
-1.792676e-01 	 6.320200e-05
-1.782254e-01 	 6.313900e-05
-1.771831e-01 	 6.316400e-05
-1.761409e-01 	 6.319500e-05
-1.750986e-01 	 6.314700e-05
-1.740563e-01 	 6.315800e-05
-1.730141e-01 	 6.313100e-05
-1.719718e-01 	 6.319100e-05
-1.709296e-01 	 6.320700e-05
-1.698873e-01 	 6.319800e-05
-1.688451e-01 	 6.315500e-05
-1.678028e-01 	 6.313900e-05
-1.667606e-01 	 6.317500e-05
-1.657183e-01 	 6.319100e-05
-1.646761e-01 	 6.321500e-05
-1.636338e-01 	 6.319000e-05
-1.625916e-01 	 6.315100e-05
-1.615493e-01 	 6.319900e-05
-1.605070e-01 	 6.317800e-05
-1.594648e-01 	 6.315300e-05
-1.584225e-01 	 6.315800e-05
-1.573803e-01 	 6.318200e-05
-1.563380e-01 	 6.314600e-05
-1.552958e-01 	 6.315000e-05
-1.542535e-01 	 6.318400e-05
-1.532113e-01 	 6.319000e-05
-1.521690e-01 	 6.324600e-05
-1.511268e-01 	 6.323700e-05
-1.500845e-01 	 6.322200e-05
-1.490423e-01 	 6.324200e-05
-1.480000e-01 	 6.322700e-05
-1.469578e-01 	 6.321600e-05
-1.459155e-01 	 6.321000e-05
-1.448732e-01 	 6.318400e-05
-1.438310e-01 	 6.319000e-05
-1.427887e-01 	 6.317600e-05
-1.417465e-01 	 6.317400e-05
-1.407042e-01 	 6.319400e-05
-1.396620e-01 	 6.318100e-05
-1.386197e-01 	 6.313400e-05
-1.375775e-01 	 6.315800e-05
-1.365352e-01 	 6.316900e-05
-1.354930e-01 	 6.315500e-05
-1.344507e-01 	 6.313100e-05
-1.334085e-01 	 6.310900e-05
-1.323662e-01 	 6.309300e-05
-1.313239e-01 	 6.307600e-05
-1.302817e-01 	 6.308400e-05
-1.292394e-01 	 6.309800e-05
-1.281972e-01 	 6.308400e-05
-1.271549e-01 	 6.310800e-05
-1.261127e-01 	 6.310000e-05
-1.250704e-01 	 6.309300e-05
-1.240282e-01 	 6.313900e-05
-1.229859e-01 	 6.314500e-05
-1.219437e-01 	 6.308700e-05
-1.209014e-01 	 6.307900e-05
-1.198592e-01 	 6.311400e-05
-1.188169e-01 	 6.307800e-05
-1.177747e-01 	 6.307500e-05
-1.167324e-01 	 6.304700e-05
-1.156901e-01 	 6.305500e-05
-1.146479e-01 	 6.302700e-05
-1.136056e-01 	 6.301100e-05
-1.125634e-01 	 6.296300e-05
-1.115211e-01 	 6.302100e-05
-1.104789e-01 	 6.302000e-05
-1.094366e-01 	 6.303800e-05
-1.083944e-01 	 6.302200e-05
-1.073521e-01 	 6.300400e-05
-1.063099e-01 	 6.298000e-05
-1.052676e-01 	 6.299500e-05
-1.042254e-01 	 6.298700e-05
-1.031831e-01 	 6.298000e-05
-1.021409e-01 	 6.297200e-05
-1.010986e-01 	 6.297000e-05
-1.000563e-01 	 6.296700e-05
-9.901410e-02 	 6.298200e-05
-9.797180e-02 	 6.296000e-05
-9.692960e-02 	 6.301100e-05
-9.588730e-02 	 6.302400e-05
-9.484510e-02 	 6.299400e-05
-9.380280e-02 	 6.300700e-05
-9.276060e-02 	 6.302900e-05
-9.171830e-02 	 6.297200e-05
-9.067610e-02 	 6.299600e-05
-8.963380e-02 	 6.296400e-05
-8.859160e-02 	 6.297100e-05
-8.754930e-02 	 6.296500e-05
-8.650700e-02 	 6.292100e-05
-8.546480e-02 	 6.298100e-05
-8.442250e-02 	 6.299200e-05
-8.338030e-02 	 6.296300e-05
-8.233800e-02 	 6.294500e-05
-8.129580e-02 	 6.296600e-05
-8.025350e-02 	 6.299600e-05
-7.921130e-02 	 6.302500e-05
-7.816900e-02 	 6.300700e-05
-7.712680e-02 	 6.297600e-05
-7.608450e-02 	 6.296900e-05
-7.504230e-02 	 6.294200e-05
-7.400000e-02 	 6.296100e-05
-7.295780e-02 	 6.296100e-05
-7.191550e-02 	 6.291600e-05
-7.087320e-02 	 6.291700e-05
-6.983100e-02 	 6.292100e-05
-6.878870e-02 	 6.288000e-05
-6.774650e-02 	 6.287900e-05
-6.670420e-02 	 6.288800e-05
-6.566200e-02 	 6.287000e-05
-6.461970e-02 	 6.285800e-05
-6.357750e-02 	 6.288900e-05
-6.253520e-02 	 6.290400e-05
-6.149300e-02 	 6.291100e-05
-6.045070e-02 	 6.292100e-05
-5.940850e-02 	 6.294000e-05
-5.836620e-02 	 6.292400e-05
-5.732390e-02 	 6.294200e-05
-5.628170e-02 	 6.293100e-05
-5.523940e-02 	 6.297600e-05
-5.419720e-02 	 6.298600e-05
-5.315490e-02 	 6.302300e-05
-5.211270e-02 	 6.298000e-05
-5.107040e-02 	 6.299400e-05
-5.002820e-02 	 6.296600e-05
-4.898590e-02 	 6.291900e-05
-4.794370e-02 	 6.289800e-05
-4.690140e-02 	 6.288000e-05
-4.585920e-02 	 6.286300e-05
-4.481690e-02 	 6.287300e-05
-4.377470e-02 	 6.286400e-05
-4.273240e-02 	 6.280900e-05
-4.169010e-02 	 6.282000e-05
-4.064790e-02 	 6.283000e-05
-3.960560e-02 	 6.280900e-05
-3.856340e-02 	 6.286700e-05
-3.752110e-02 	 6.288800e-05
-3.647890e-02 	 6.291000e-05
-3.543660e-02 	 6.290100e-05
-3.439440e-02 	 6.287500e-05
-3.335210e-02 	 6.287600e-05
-3.230990e-02 	 6.291300e-05
-3.126760e-02 	 6.290900e-05
-3.022540e-02 	 6.293500e-05
-2.918310e-02 	 6.295400e-05
-2.814090e-02 	 6.295000e-05
-2.709860e-02 	 6.293500e-05
-2.605630e-02 	 6.288300e-05
-2.501410e-02 	 6.289300e-05
-2.397180e-02 	 6.287800e-05
-2.292960e-02 	 6.289200e-05
-2.188730e-02 	 6.284300e-05
-2.084510e-02 	 6.280500e-05
-1.980280e-02 	 6.280700e-05
-1.876060e-02 	 6.283500e-05
-1.771830e-02 	 6.280900e-05
-1.667610e-02 	 6.282600e-05
-1.563380e-02 	 6.286700e-05
-1.459160e-02 	 6.286100e-05
-1.354930e-02 	 6.291300e-05
-1.250700e-02 	 6.293100e-05
-1.146480e-02 	 6.295700e-05
-1.042250e-02 	 6.303200e-05
-9.380300e-03 	 6.307200e-05
-8.338000e-03 	 6.310100e-05
-7.295800e-03 	 6.313800e-05
-6.253500e-03 	 6.316900e-05
-5.211300e-03 	 6.323400e-05
-4.169000e-03 	 6.354800e-05
-3.126800e-03 	 6.449200e-05
-2.084500e-03 	 6.697300e-05
-1.042300e-03 	 7.127800e-05
0.000000e+00 	 7.536000e-05
1.042200e-03 	 7.614100e-05
2.084500e-03 	 7.329200e-05
3.126800e-03 	 7.004700e-05
4.169000e-03 	 6.792200e-05
5.211300e-03 	 6.680200e-05
6.253500e-03 	 6.617500e-05
7.295800e-03 	 6.586600e-05
8.338000e-03 	 6.571600e-05
9.380300e-03 	 6.558700e-05
1.042250e-02 	 6.554400e-05
1.146480e-02 	 6.555300e-05
1.250700e-02 	 6.567100e-05
1.354930e-02 	 6.569900e-05
1.459150e-02 	 6.576400e-05
1.563380e-02 	 6.567900e-05
1.667610e-02 	 6.559100e-05
1.771830e-02 	 6.542000e-05
1.876060e-02 	 6.523700e-05
1.980280e-02 	 6.503400e-05
2.084510e-02 	 6.486500e-05
2.188730e-02 	 6.476200e-05
2.292960e-02 	 6.470600e-05
2.397180e-02 	 6.476400e-05
2.501410e-02 	 6.485600e-05
2.605630e-02 	 6.495400e-05
2.709860e-02 	 6.506200e-05
2.814080e-02 	 6.511700e-05
2.918310e-02 	 6.511200e-05
3.022530e-02 	 6.507700e-05
3.126760e-02 	 6.501400e-05
3.230990e-02 	 6.484100e-05
3.335210e-02 	 6.467500e-05
3.439440e-02 	 6.451300e-05
3.543660e-02 	 6.439800e-05
3.647890e-02 	 6.434300e-05
3.752110e-02 	 6.440000e-05
3.856340e-02 	 6.450300e-05
3.960560e-02 	 6.466200e-05
4.064790e-02 	 6.484600e-05
4.169010e-02 	 6.496900e-05
4.273240e-02 	 6.503800e-05
4.377460e-02 	 6.508500e-05
4.481690e-02 	 6.502100e-05
4.585910e-02 	 6.492700e-05
4.690140e-02 	 6.483200e-05
4.794370e-02 	 6.464700e-05
4.898590e-02 	 6.448100e-05
5.002820e-02 	 6.443600e-05
5.107040e-02 	 6.446000e-05
5.211270e-02 	 6.448600e-05
5.315490e-02 	 6.461900e-05
5.419720e-02 	 6.477200e-05
5.523940e-02 	 6.490700e-05
5.628170e-02 	 6.496400e-05
5.732390e-02 	 6.499400e-05
5.836620e-02 	 6.499300e-05
5.940840e-02 	 6.488400e-05
6.045070e-02 	 6.475300e-05
6.149300e-02 	 6.458000e-05
6.253520e-02 	 6.440100e-05
6.357750e-02 	 6.433700e-05
6.461970e-02 	 6.432100e-05
6.566200e-02 	 6.441000e-05
6.670420e-02 	 6.448100e-05
6.774650e-02 	 6.460400e-05
6.878870e-02 	 6.473100e-05
6.983100e-02 	 6.483200e-05
7.087320e-02 	 6.487000e-05
7.191550e-02 	 6.491000e-05
7.295770e-02 	 6.483000e-05
7.400000e-02 	 6.471400e-05
7.504220e-02 	 6.457200e-05
7.608450e-02 	 6.442600e-05
7.712680e-02 	 6.429800e-05
7.816900e-02 	 6.421900e-05
7.921130e-02 	 6.423100e-05
8.025350e-02 	 6.433000e-05
8.129580e-02 	 6.449200e-05
8.233800e-02 	 6.467100e-05
8.338030e-02 	 6.485800e-05
8.442250e-02 	 6.495800e-05
8.546480e-02 	 6.494900e-05
8.650700e-02 	 6.486500e-05
8.754930e-02 	 6.475500e-05
8.859150e-02 	 6.458200e-05
8.963380e-02 	 6.442800e-05
9.067610e-02 	 6.434000e-05
9.171830e-02 	 6.428000e-05
9.276060e-02 	 6.424900e-05
9.380280e-02 	 6.430000e-05
9.484510e-02 	 6.440700e-05
9.588730e-02 	 6.455300e-05
9.692960e-02 	 6.472300e-05
9.797180e-02 	 6.483500e-05
9.901410e-02 	 6.485300e-05
1.000563e-01 	 6.483600e-05
1.010986e-01 	 6.471900e-05
1.021408e-01 	 6.460400e-05
1.031831e-01 	 6.443600e-05
1.042253e-01 	 6.424200e-05
1.052676e-01 	 6.411500e-05
1.063099e-01 	 6.412000e-05
1.073521e-01 	 6.416300e-05
1.083944e-01 	 6.422900e-05
1.094366e-01 	 6.440400e-05
1.104789e-01 	 6.459500e-05
1.115211e-01 	 6.468700e-05
1.125634e-01 	 6.477500e-05
1.136056e-01 	 6.479100e-05
1.146479e-01 	 6.472400e-05
1.156901e-01 	 6.458300e-05
1.167324e-01 	 6.435900e-05
1.177746e-01 	 6.417100e-05
1.188169e-01 	 6.403000e-05
1.198591e-01 	 6.402800e-05
1.209014e-01 	 6.406500e-05
1.219437e-01 	 6.414600e-05
1.229859e-01 	 6.425800e-05
1.240282e-01 	 6.441100e-05
1.250704e-01 	 6.459300e-05
1.261127e-01 	 6.471800e-05
1.271549e-01 	 6.479600e-05
1.281972e-01 	 6.475200e-05
1.292394e-01 	 6.460400e-05
1.302817e-01 	 6.441600e-05
1.313239e-01 	 6.423600e-05
1.323662e-01 	 6.406600e-05
1.334084e-01 	 6.390400e-05
1.344507e-01 	 6.378100e-05
1.354930e-01 	 6.379300e-05
1.365352e-01 	 6.390100e-05
1.375775e-01 	 6.401800e-05
1.386197e-01 	 6.419100e-05
1.396620e-01 	 6.432900e-05
1.407042e-01 	 6.439100e-05
1.417465e-01 	 6.439300e-05
1.427887e-01 	 6.425400e-05
1.438310e-01 	 6.410800e-05
1.448732e-01 	 6.394000e-05
1.459155e-01 	 6.377200e-05
1.469577e-01 	 6.364600e-05
1.480000e-01 	 6.357600e-05
1.490422e-01 	 6.359400e-05
1.500845e-01 	 6.373700e-05
1.511268e-01 	 6.394800e-05
1.521690e-01 	 6.411300e-05
1.532113e-01 	 6.432200e-05
1.542535e-01 	 6.440400e-05
1.552958e-01 	 6.442300e-05
1.563380e-01 	 6.441500e-05
1.573803e-01 	 6.423900e-05
1.584225e-01 	 6.405500e-05
1.594648e-01 	 6.389800e-05
1.605070e-01 	 6.376000e-05
1.615493e-01 	 6.372200e-05
1.625915e-01 	 6.372900e-05
1.636338e-01 	 6.389200e-05
1.646761e-01 	 6.404500e-05
1.657183e-01 	 6.419600e-05
1.667606e-01 	 6.441800e-05
1.678028e-01 	 6.448900e-05
1.688451e-01 	 6.453100e-05
1.698873e-01 	 6.451700e-05
1.709296e-01 	 6.442200e-05
1.719718e-01 	 6.424800e-05
1.730141e-01 	 6.401600e-05
1.740563e-01 	 6.387200e-05
1.750986e-01 	 6.374000e-05
1.761408e-01 	 6.375600e-05
1.771831e-01 	 6.381600e-05
1.782253e-01 	 6.396400e-05
1.792676e-01 	 6.417600e-05
1.803099e-01 	 6.435700e-05
1.813521e-01 	 6.452800e-05
1.823944e-01 	 6.461600e-05
1.834366e-01 	 6.460000e-05
1.844789e-01 	 6.450000e-05
1.855211e-01 	 6.434800e-05
1.865634e-01 	 6.416800e-05
1.876056e-01 	 6.398400e-05
1.886479e-01 	 6.385100e-05
1.896901e-01 	 6.383000e-05
1.907324e-01 	 6.382100e-05
1.917746e-01 	 6.395700e-05
1.928169e-01 	 6.414200e-05
1.938591e-01 	 6.430100e-05
1.949014e-01 	 6.446900e-05
1.959437e-01 	 6.461900e-05
1.969859e-01 	 6.463500e-05
1.980282e-01 	 6.461500e-05
1.990704e-01 	 6.453000e-05
2.001127e-01 	 6.436900e-05
2.011549e-01 	 6.419700e-05
2.021972e-01 	 6.404200e-05
2.032394e-01 	 6.397600e-05
2.042817e-01 	 6.399100e-05
2.053239e-01 	 6.403700e-05
2.063662e-01 	 6.419400e-05
2.074084e-01 	 6.437800e-05
2.084507e-01 	 6.454200e-05
2.094930e-01 	 6.470400e-05
2.105352e-01 	 6.479000e-05
2.115775e-01 	 6.475400e-05
2.126197e-01 	 6.466800e-05
2.136620e-01 	 6.451700e-05
2.147042e-01 	 6.435400e-05
2.157465e-01 	 6.423400e-05
2.167887e-01 	 6.414400e-05
2.178310e-01 	 6.410800e-05
2.188732e-01 	 6.416400e-05
2.199155e-01 	 6.427500e-05
2.209577e-01 	 6.445500e-05
2.220000e-01 	 6.462800e-05
2.230422e-01 	 6.477600e-05
2.240845e-01 	 6.489900e-05
2.251268e-01 	 6.489900e-05
2.261690e-01 	 6.484300e-05
2.272113e-01 	 6.475200e-05
2.282535e-01 	 6.456900e-05
2.292958e-01 	 6.437700e-05
2.303380e-01 	 6.426300e-05
2.313803e-01 	 6.425500e-05
2.324225e-01 	 6.427700e-05
2.334648e-01 	 6.436300e-05
2.345070e-01 	 6.453200e-05
2.355493e-01 	 6.464900e-05
2.365915e-01 	 6.485600e-05
2.376338e-01 	 6.499400e-05
2.386761e-01 	 6.502400e-05
2.397183e-01 	 6.500200e-05
2.407606e-01 	 6.491800e-05
2.418028e-01 	 6.481400e-05
2.428451e-01 	 6.467100e-05
2.438873e-01 	 6.453600e-05
2.449296e-01 	 6.442900e-05
2.459718e-01 	 6.443600e-05
2.470141e-01 	 6.448300e-05
2.480563e-01 	 6.463500e-05
2.490986e-01 	 6.480800e-05
2.501408e-01 	 6.497000e-05
2.511831e-01 	 6.505900e-05
2.522253e-01 	 6.515500e-05
2.532676e-01 	 6.519800e-05
2.543099e-01 	 6.513900e-05
2.553521e-01 	 6.505200e-05
2.563944e-01 	 6.491600e-05
2.574366e-01 	 6.477400e-05
2.584789e-01 	 6.463700e-05
2.595211e-01 	 6.457900e-05
2.605634e-01 	 6.458100e-05
2.616056e-01 	 6.461700e-05
2.626479e-01 	 6.474500e-05
2.636901e-01 	 6.491300e-05
2.647324e-01 	 6.506900e-05
2.657746e-01 	 6.521900e-05
2.668169e-01 	 6.529400e-05
2.678591e-01 	 6.522900e-05
2.689014e-01 	 6.513200e-05
2.699437e-01 	 6.495400e-05
2.709859e-01 	 6.478500e-05
2.720282e-01 	 6.464600e-05
2.730704e-01 	 6.459800e-05
2.741127e-01 	 6.455300e-05
2.751549e-01 	 6.461300e-05
2.761972e-01 	 6.474100e-05
2.772394e-01 	 6.492000e-05
2.782817e-01 	 6.509700e-05
2.793239e-01 	 6.521200e-05
2.803662e-01 	 6.530000e-05
2.814084e-01 	 6.533400e-05
2.824507e-01 	 6.529000e-05
2.834930e-01 	 6.515900e-05
2.845352e-01 	 6.504500e-05
2.855775e-01 	 6.487200e-05
2.866197e-01 	 6.476400e-05
2.876620e-01 	 6.472600e-05
2.887042e-01 	 6.480100e-05
2.897465e-01 	 6.489200e-05
2.907887e-01 	 6.503800e-05
2.918310e-01 	 6.518000e-05
2.928732e-01 	 6.533500e-05
2.939155e-01 	 6.544600e-05
2.949577e-01 	 6.545400e-05
2.960000e-01 	 6.543400e-05
2.970422e-01 	 6.535700e-05
2.980845e-01 	 6.520400e-05
2.991268e-01 	 6.504300e-05
3.001690e-01 	 6.491900e-05
3.012113e-01 	 6.482400e-05
3.022535e-01 	 6.484300e-05
3.032958e-01 	 6.492400e-05
3.043380e-01 	 6.506900e-05
3.053803e-01 	 6.521600e-05
3.064225e-01 	 6.538200e-05
3.074648e-01 	 6.552700e-05
3.085070e-01 	 6.564400e-05
3.095493e-01 	 6.561900e-05
3.105915e-01 	 6.555400e-05
3.116338e-01 	 6.547300e-05
3.126761e-01 	 6.531100e-05
3.137183e-01 	 6.509900e-05
3.147606e-01 	 6.496400e-05
3.158028e-01 	 6.488400e-05
3.168451e-01 	 6.490100e-05
3.178873e-01 	 6.502600e-05
3.189296e-01 	 6.518300e-05
3.199718e-01 	 6.534100e-05
3.210141e-01 	 6.551200e-05
3.220563e-01 	 6.561600e-05
3.230986e-01 	 6.567800e-05
3.241408e-01 	 6.559000e-05
3.251831e-01 	 6.549800e-05
3.262253e-01 	 6.533300e-05
3.272676e-01 	 6.512500e-05
3.283099e-01 	 6.497900e-05
3.293521e-01 	 6.488500e-05
3.303944e-01 	 6.486700e-05
3.314366e-01 	 6.492800e-05
3.324789e-01 	 6.504000e-05
3.335211e-01 	 6.521900e-05
3.345634e-01 	 6.540500e-05
3.356056e-01 	 6.558100e-05
3.366479e-01 	 6.570600e-05
3.376901e-01 	 6.580700e-05
3.387324e-01 	 6.576100e-05
3.397746e-01 	 6.560100e-05
3.408169e-01 	 6.543600e-05
3.418591e-01 	 6.524200e-05
3.429014e-01 	 6.511400e-05
3.439437e-01 	 6.500300e-05
3.449859e-01 	 6.495200e-05
3.460282e-01 	 6.500600e-05
3.470704e-01 	 6.507100e-05
3.481127e-01 	 6.526500e-05
3.491549e-01 	 6.549000e-05
3.501972e-01 	 6.566700e-05
3.512394e-01 	 6.579200e-05
3.522817e-01 	 6.578500e-05
3.533239e-01 	 6.571200e-05
3.543662e-01 	 6.558700e-05
3.554084e-01 	 6.543900e-05
3.564507e-01 	 6.523600e-05
3.574930e-01 	 6.505800e-05
3.585352e-01 	 6.495500e-05
3.595775e-01 	 6.501400e-05
3.606197e-01 	 6.507400e-05
3.616620e-01 	 6.525400e-05
3.627042e-01 	 6.546300e-05
3.637465e-01 	 6.566100e-05
3.647887e-01 	 6.580400e-05
3.658310e-01 	 6.590400e-05
3.668732e-01 	 6.597100e-05
3.679155e-01 	 6.587700e-05
3.689577e-01 	 6.569300e-05
3.700000e-01 	 6.550800e-05
3.710422e-01 	 6.528600e-05
3.720845e-01 	 6.509800e-05
3.731268e-01 	 6.497500e-05
3.741690e-01 	 6.489900e-05
3.752113e-01 	 6.498600e-05
3.762535e-01 	 6.511200e-05
3.772958e-01 	 6.531700e-05
3.783380e-01 	 6.550500e-05
3.793803e-01 	 6.568700e-05
3.804225e-01 	 6.588100e-05
3.814648e-01 	 6.595300e-05
3.825070e-01 	 6.593500e-05
3.835493e-01 	 6.581700e-05
3.845915e-01 	 6.564900e-05
3.856338e-01 	 6.543900e-05
3.866761e-01 	 6.521400e-05
3.877183e-01 	 6.500700e-05
3.887606e-01 	 6.491000e-05
3.898028e-01 	 6.488600e-05
3.908451e-01 	 6.493000e-05
3.918873e-01 	 6.504100e-05
3.929296e-01 	 6.525900e-05
3.939718e-01 	 6.553800e-05
3.950141e-01 	 6.576200e-05
3.960563e-01 	 6.592600e-05
3.970986e-01 	 6.606400e-05
3.981408e-01 	 6.614100e-05
3.991831e-01 	 6.611300e-05
4.002253e-01 	 6.596900e-05
4.012676e-01 	 6.572900e-05
4.023099e-01 	 6.543500e-05
4.033521e-01 	 6.521100e-05
4.043944e-01 	 6.498800e-05
4.054366e-01 	 6.481700e-05
4.064789e-01 	 6.475600e-05
4.075211e-01 	 6.478200e-05
4.085634e-01 	 6.492800e-05
4.096056e-01 	 6.515100e-05
4.106479e-01 	 6.546700e-05
4.116901e-01 	 6.575300e-05
4.127324e-01 	 6.599500e-05
4.137746e-01 	 6.611800e-05
4.148169e-01 	 6.613500e-05
4.158591e-01 	 6.606600e-05
4.169014e-01 	 6.594600e-05
4.179437e-01 	 6.564700e-05
4.189859e-01 	 6.534100e-05
4.200282e-01 	 6.508100e-05
4.210704e-01 	 6.486600e-05
4.221127e-01 	 6.474900e-05
4.231549e-01 	 6.469800e-05
4.241972e-01 	 6.476300e-05
4.252394e-01 	 6.492500e-05
4.262817e-01 	 6.517200e-05
4.273239e-01 	 6.547300e-05
4.283662e-01 	 6.578800e-05
4.294084e-01 	 6.598200e-05
4.304507e-01 	 6.616500e-05
4.314930e-01 	 6.614300e-05
4.325352e-01 	 6.605700e-05
4.335775e-01 	 6.584700e-05
4.346197e-01 	 6.557900e-05
4.356620e-01 	 6.536700e-05
4.367042e-01 	 6.514500e-05
4.377465e-01 	 6.500100e-05
4.387887e-01 	 6.485500e-05
4.398310e-01 	 6.488000e-05
4.408732e-01 	 6.499300e-05
4.419155e-01 	 6.520400e-05
4.429577e-01 	 6.545900e-05
4.440000e-01 	 6.572400e-05
4.450422e-01 	 6.600600e-05
4.460845e-01 	 6.616300e-05
4.471268e-01 	 6.617900e-05
4.481690e-01 	 6.611500e-05
4.492113e-01 	 6.596200e-05
4.502535e-01 	 6.571600e-05
4.512958e-01 	 6.545400e-05
4.523380e-01 	 6.522600e-05
4.533803e-01 	 6.504700e-05
4.544225e-01 	 6.494900e-05
4.554648e-01 	 6.495400e-05
4.565070e-01 	 6.502400e-05
4.575493e-01 	 6.514000e-05
4.585915e-01 	 6.531400e-05
4.596338e-01 	 6.547700e-05
4.606761e-01 	 6.571600e-05
4.617183e-01 	 6.585500e-05
4.627606e-01 	 6.589700e-05
4.638028e-01 	 6.585400e-05
4.648451e-01 	 6.572600e-05
4.658873e-01 	 6.549800e-05
4.669296e-01 	 6.532900e-05
4.679718e-01 	 6.514700e-05
4.690141e-01 	 6.502100e-05
4.700563e-01 	 6.491100e-05
4.710986e-01 	 6.488500e-05
4.721408e-01 	 6.494400e-05
4.731831e-01 	 6.507100e-05
4.742253e-01 	 6.524800e-05
4.752676e-01 	 6.541700e-05
4.763099e-01 	 6.560400e-05
4.773521e-01 	 6.567800e-05
4.783944e-01 	 6.569400e-05
4.794366e-01 	 6.566300e-05
4.804789e-01 	 6.562000e-05
4.815211e-01 	 6.547700e-05
4.825634e-01 	 6.534000e-05
4.836056e-01 	 6.520200e-05
4.846479e-01 	 6.507000e-05
4.856901e-01 	 6.496400e-05
4.867324e-01 	 6.494900e-05
4.877746e-01 	 6.497000e-05
4.888169e-01 	 6.504100e-05
4.898591e-01 	 6.508900e-05
4.909014e-01 	 6.520700e-05
4.919437e-01 	 6.532200e-05
4.929859e-01 	 6.546100e-05
4.940282e-01 	 6.550500e-05
4.950704e-01 	 6.552100e-05
4.961127e-01 	 6.551200e-05
4.971549e-01 	 6.543100e-05
4.981972e-01 	 6.534500e-05
4.992394e-01 	 6.526900e-05
5.002817e-01 	 6.518500e-05
5.013239e-01 	 6.512100e-05
5.023662e-01 	 6.508400e-05
5.034084e-01 	 6.505600e-05
5.044507e-01 	 6.509800e-05
5.054930e-01 	 6.509800e-05
5.065352e-01 	 6.520700e-05
5.075775e-01 	 6.535600e-05
5.086197e-01 	 6.545700e-05
5.096620e-01 	 6.551400e-05
5.107042e-01 	 6.553400e-05
5.117465e-01 	 6.551200e-05
5.127887e-01 	 6.553200e-05
5.138310e-01 	 6.545300e-05
5.148732e-01 	 6.543500e-05
5.159155e-01 	 6.535500e-05
5.169577e-01 	 6.532300e-05
5.180000e-01 	 6.527400e-05
5.190422e-01 	 6.520100e-05
5.200845e-01 	 6.518900e-05
5.211268e-01 	 6.522000e-05
5.221690e-01 	 6.528500e-05
5.232113e-01 	 6.533000e-05
5.242535e-01 	 6.539600e-05
5.252958e-01 	 6.548900e-05
5.263380e-01 	 6.561100e-05
5.273803e-01 	 6.566300e-05
5.284225e-01 	 6.564500e-05
5.294648e-01 	 6.563700e-05
5.305070e-01 	 6.564800e-05
5.315493e-01 	 6.558300e-05
5.325915e-01 	 6.548200e-05
5.336338e-01 	 6.541400e-05
5.346761e-01 	 6.537800e-05
5.357183e-01 	 6.530700e-05
5.367606e-01 	 6.533700e-05
5.378028e-01 	 6.529700e-05
5.388451e-01 	 6.532300e-05
5.398873e-01 	 6.537000e-05
5.409296e-01 	 6.542700e-05
5.419718e-01 	 6.550500e-05
5.430141e-01 	 6.555600e-05
5.440563e-01 	 6.560400e-05
5.450986e-01 	 6.569900e-05
5.461408e-01 	 6.573000e-05
5.471831e-01 	 6.570800e-05
5.482253e-01 	 6.571200e-05
5.492676e-01 	 6.570500e-05
5.503099e-01 	 6.566000e-05
5.513521e-01 	 6.557800e-05
5.523944e-01 	 6.550700e-05
5.534366e-01 	 6.543400e-05
5.544789e-01 	 6.548000e-05
5.555211e-01 	 6.547000e-05
5.565634e-01 	 6.553200e-05
5.576056e-01 	 6.558500e-05
5.586479e-01 	 6.563800e-05
5.596901e-01 	 6.571900e-05
5.607324e-01 	 6.579000e-05
5.617746e-01 	 6.583800e-05
5.628169e-01 	 6.585800e-05
5.638591e-01 	 6.592100e-05
5.649014e-01 	 6.588500e-05
5.659437e-01 	 6.586700e-05
5.669859e-01 	 6.579100e-05
5.680282e-01 	 6.573500e-05
5.690704e-01 	 6.568400e-05
5.701127e-01 	 6.559900e-05
5.711549e-01 	 6.556700e-05
5.721972e-01 	 6.551300e-05
5.732394e-01 	 6.558300e-05
5.742817e-01 	 6.564800e-05
5.753239e-01 	 6.573100e-05
5.763662e-01 	 6.577700e-05
5.774084e-01 	 6.586700e-05
5.784507e-01 	 6.595900e-05
5.794930e-01 	 6.599900e-05
5.805352e-01 	 6.605400e-05
5.815775e-01 	 6.598300e-05
5.826197e-01 	 6.599700e-05
5.836620e-01 	 6.593200e-05
5.847042e-01 	 6.586700e-05
5.857465e-01 	 6.582400e-05
5.867887e-01 	 6.578300e-05
5.878310e-01 	 6.573300e-05
5.888732e-01 	 6.570700e-05
5.899155e-01 	 6.573100e-05
5.909577e-01 	 6.580400e-05
5.920000e-01 	 6.580800e-05
5.930422e-01 	 6.590000e-05
5.940845e-01 	 6.596100e-05
5.951268e-01 	 6.601600e-05
5.961690e-01 	 6.605800e-05
5.972113e-01 	 6.604600e-05
5.982535e-01 	 6.607400e-05
5.992958e-01 	 6.602900e-05
6.003380e-01 	 6.594500e-05
6.013803e-01 	 6.587200e-05
6.024225e-01 	 6.579700e-05
6.034648e-01 	 6.569100e-05
6.045070e-01 	 6.568500e-05
6.055493e-01 	 6.566800e-05
6.065915e-01 	 6.568100e-05
6.076338e-01 	 6.579300e-05
6.086761e-01 	 6.585200e-05
6.097183e-01 	 6.595400e-05
6.107606e-01 	 6.602100e-05
6.118028e-01 	 6.606200e-05
6.128451e-01 	 6.607000e-05
6.138873e-01 	 6.603800e-05
6.149296e-01 	 6.599400e-05
6.159718e-01 	 6.595000e-05
6.170141e-01 	 6.589800e-05
6.180563e-01 	 6.582900e-05
6.190986e-01 	 6.576200e-05
6.201408e-01 	 6.574500e-05
6.211831e-01 	 6.567800e-05
6.222253e-01 	 6.566700e-05
6.232676e-01 	 6.571600e-05
6.243099e-01 	 6.582000e-05
6.253521e-01 	 6.585100e-05
6.263944e-01 	 6.590200e-05
6.274366e-01 	 6.593700e-05
6.284789e-01 	 6.603200e-05
6.295211e-01 	 6.608100e-05
6.305634e-01 	 6.603500e-05
6.316056e-01 	 6.605800e-05
6.326479e-01 	 6.603600e-05
6.336901e-01 	 6.597300e-05
6.347324e-01 	 6.587400e-05
6.357746e-01 	 6.578600e-05
6.368169e-01 	 6.573600e-05
6.378591e-01 	 6.575000e-05
6.389014e-01 	 6.570000e-05
6.399437e-01 	 6.575500e-05
6.409859e-01 	 6.584400e-05
6.420282e-01 	 6.589200e-05
6.430704e-01 	 6.600200e-05
6.441127e-01 	 6.605200e-05
6.451549e-01 	 6.612800e-05
6.461972e-01 	 6.616000e-05
6.472394e-01 	 6.612700e-05
6.482817e-01 	 6.610400e-05
6.493239e-01 	 6.607800e-05
6.503662e-01 	 6.601900e-05
6.514084e-01 	 6.594600e-05
6.524507e-01 	 6.582400e-05
6.534930e-01 	 6.580100e-05
6.545352e-01 	 6.576000e-05
6.555775e-01 	 6.575100e-05
6.566197e-01 	 6.579100e-05
6.576620e-01 	 6.583300e-05
6.587042e-01 	 6.590900e-05
6.597465e-01 	 6.599300e-05
6.607887e-01 	 6.605200e-05
6.618310e-01 	 6.610300e-05
6.628732e-01 	 6.615000e-05
6.639155e-01 	 6.618800e-05
6.649577e-01 	 6.614500e-05
6.660000e-01 	 6.608600e-05
6.670422e-01 	 6.603600e-05
6.680845e-01 	 6.597400e-05
6.691268e-01 	 6.585000e-05
6.701690e-01 	 6.582100e-05
6.712113e-01 	 6.575000e-05
6.722535e-01 	 6.569800e-05
6.732958e-01 	 6.568200e-05
6.743380e-01 	 6.573000e-05
6.753803e-01 	 6.580800e-05
6.764225e-01 	 6.588500e-05
6.774648e-01 	 6.600400e-05
6.785070e-01 	 6.610400e-05
6.795493e-01 	 6.616000e-05
6.805915e-01 	 6.620900e-05
6.816338e-01 	 6.621100e-05
6.826761e-01 	 6.611200e-05
6.837183e-01 	 6.609300e-05
6.847606e-01 	 6.604900e-05
6.858028e-01 	 6.594000e-05
6.868451e-01 	 6.584000e-05
6.878873e-01 	 6.570900e-05
6.889296e-01 	 6.566600e-05
6.899718e-01 	 6.571300e-05
6.910141e-01 	 6.572400e-05
6.920563e-01 	 6.578900e-05
6.930986e-01 	 6.583800e-05
6.941408e-01 	 6.589900e-05
6.951831e-01 	 6.600400e-05
6.962253e-01 	 6.610100e-05
6.972676e-01 	 6.616800e-05
6.983099e-01 	 6.614100e-05
6.993521e-01 	 6.609100e-05
7.003944e-01 	 6.602300e-05
7.014366e-01 	 6.588300e-05
7.024789e-01 	 6.580300e-05
7.035211e-01 	 6.562100e-05
7.045634e-01 	 6.549300e-05
7.056056e-01 	 6.544100e-05
7.066479e-01 	 6.550700e-05
7.076901e-01 	 6.558100e-05
7.087324e-01 	 6.572800e-05
7.097746e-01 	 6.593000e-05
7.108169e-01 	 6.609800e-05
7.118591e-01 	 6.629600e-05
7.129014e-01 	 6.637600e-05
7.139437e-01 	 6.635000e-05
7.149859e-01 	 6.629400e-05
7.160282e-01 	 6.617900e-05
7.170704e-01 	 6.600300e-05
7.181127e-01 	 6.584700e-05
7.191549e-01 	 6.567500e-05
7.201972e-01 	 6.556200e-05
7.212394e-01 	 6.553000e-05
7.222817e-01 	 6.550900e-05
7.233239e-01 	 6.566400e-05
7.243662e-01 	 6.588100e-05
7.254084e-01 	 6.613400e-05
7.264507e-01 	 6.630300e-05
7.274930e-01 	 6.644100e-05
7.285352e-01 	 6.647800e-05
7.295775e-01 	 6.642800e-05
7.306197e-01 	 6.628600e-05
7.316620e-01 	 6.603800e-05
7.327042e-01 	 6.578700e-05
7.337465e-01 	 6.562700e-05
7.347887e-01 	 6.549300e-05
7.358310e-01 	 6.545700e-05
7.368732e-01 	 6.548700e-05
7.379155e-01 	 6.564500e-05
7.389577e-01 	 6.588000e-05
7.400000e-01 	 6.612100e-05
7.410422e-01 	 6.625600e-05
7.420845e-01 	 6.642300e-05
7.431268e-01 	 6.640800e-05
7.441690e-01 	 6.633900e-05
7.452113e-01 	 6.616800e-05
7.462535e-01 	 6.588800e-05
7.472958e-01 	 6.562400e-05
7.483380e-01 	 6.542900e-05
7.493803e-01 	 6.530800e-05
7.504225e-01 	 6.524200e-05
7.514648e-01 	 6.531500e-05
7.525070e-01 	 6.553100e-05
7.535493e-01 	 6.580900e-05
7.545915e-01 	 6.607400e-05
7.556338e-01 	 6.633700e-05
7.566761e-01 	 6.649800e-05
7.577183e-01 	 6.650400e-05
7.587606e-01 	 6.643500e-05
7.598028e-01 	 6.622100e-05
7.608451e-01 	 6.594400e-05
7.618873e-01 	 6.559600e-05
7.629296e-01 	 6.536300e-05
7.639718e-01 	 6.519200e-05
7.650141e-01 	 6.513900e-05
7.660563e-01 	 6.524300e-05
7.670986e-01 	 6.547600e-05
7.681408e-01 	 6.574800e-05
7.691831e-01 	 6.601600e-05
7.702253e-01 	 6.626800e-05
7.712676e-01 	 6.642200e-05
7.723099e-01 	 6.643400e-05
7.733521e-01 	 6.631700e-05
7.743944e-01 	 6.605500e-05
7.754366e-01 	 6.580200e-05
7.764789e-01 	 6.547800e-05
7.775211e-01 	 6.523400e-05
7.785634e-01 	 6.510200e-05
7.796056e-01 	 6.507200e-05
7.806479e-01 	 6.521400e-05
7.816901e-01 	 6.548300e-05
7.827324e-01 	 6.573900e-05
7.837746e-01 	 6.605200e-05
7.848169e-01 	 6.632200e-05
7.858591e-01 	 6.647200e-05
7.869014e-01 	 6.647300e-05
7.879437e-01 	 6.638600e-05
7.889859e-01 	 6.608400e-05
7.900282e-01 	 6.574900e-05
7.910704e-01 	 6.545900e-05
7.921127e-01 	 6.516500e-05
7.931549e-01 	 6.502600e-05
7.941972e-01 	 6.498600e-05
7.952394e-01 	 6.512400e-05
7.962817e-01 	 6.532700e-05
7.973239e-01 	 6.559400e-05
7.983662e-01 	 6.593900e-05
7.994084e-01 	 6.616900e-05
8.004507e-01 	 6.634400e-05
8.014930e-01 	 6.634200e-05
8.025352e-01 	 6.628400e-05
8.035775e-01 	 6.608000e-05
8.046197e-01 	 6.569100e-05
8.056620e-01 	 6.538100e-05
8.067042e-01 	 6.513300e-05
8.077465e-01 	 6.491800e-05
8.087887e-01 	 6.490300e-05
8.098310e-01 	 6.503000e-05
8.108732e-01 	 6.528000e-05
8.119155e-01 	 6.564600e-05
8.129577e-01 	 6.597900e-05
8.140000e-01 	 6.625800e-05
8.150422e-01 	 6.643900e-05
8.160845e-01 	 6.655000e-05
8.171268e-01 	 6.643900e-05
8.181690e-01 	 6.621300e-05
8.192113e-01 	 6.584000e-05
8.202535e-01 	 6.544300e-05
8.212958e-01 	 6.513700e-05
8.223380e-01 	 6.498400e-05
8.233803e-01 	 6.490700e-05
8.244225e-01 	 6.504300e-05
8.254648e-01 	 6.528700e-05
8.265070e-01 	 6.559300e-05
8.275493e-01 	 6.595700e-05
8.285915e-01 	 6.623200e-05
8.296338e-01 	 6.637600e-05
8.306761e-01 	 6.645500e-05
8.317183e-01 	 6.636600e-05
8.327606e-01 	 6.610000e-05
8.338028e-01 	 6.572600e-05
8.348451e-01 	 6.537900e-05
8.358873e-01 	 6.509400e-05
8.369296e-01 	 6.485200e-05
8.379718e-01 	 6.484700e-05
8.390141e-01 	 6.498600e-05
8.400563e-01 	 6.522100e-05
8.410986e-01 	 6.551900e-05
8.421408e-01 	 6.584600e-05
8.431831e-01 	 6.615500e-05
8.442253e-01 	 6.640900e-05
8.452676e-01 	 6.643500e-05
8.463099e-01 	 6.639000e-05
8.473521e-01 	 6.616400e-05
8.483944e-01 	 6.585300e-05
8.494366e-01 	 6.549700e-05
8.504789e-01 	 6.518800e-05
8.515211e-01 	 6.497000e-05
8.525634e-01 	 6.489200e-05
8.536056e-01 	 6.496400e-05
8.546479e-01 	 6.521500e-05
8.556901e-01 	 6.548900e-05
8.567324e-01 	 6.580900e-05
8.577746e-01 	 6.607900e-05
8.588169e-01 	 6.630500e-05
8.598591e-01 	 6.639200e-05
8.609014e-01 	 6.632400e-05
8.619437e-01 	 6.612300e-05
8.629859e-01 	 6.586000e-05
8.640282e-01 	 6.549100e-05
8.650704e-01 	 6.520500e-05
8.661127e-01 	 6.501800e-05
8.671549e-01 	 6.493600e-05
8.681972e-01 	 6.500900e-05
8.692394e-01 	 6.517900e-05
8.702817e-01 	 6.545600e-05
8.713239e-01 	 6.581200e-05
8.723662e-01 	 6.607400e-05
8.734084e-01 	 6.623000e-05
8.744507e-01 	 6.627400e-05
8.754930e-01 	 6.605300e-05
8.765352e-01 	 6.576500e-05
8.775775e-01 	 6.543800e-05
8.786197e-01 	 6.510100e-05
8.796620e-01 	 6.492500e-05
8.807042e-01 	 6.497300e-05
8.817465e-01 	 6.519500e-05
8.827887e-01 	 6.553600e-05
8.838310e-01 	 6.576100e-05
8.848732e-01 	 6.579600e-05
8.859155e-01 	 6.568400e-05
8.869577e-01 	 6.550000e-05
8.880000e-01 	 6.523200e-05
8.890422e-01 	 6.515200e-05
8.900845e-01 	 6.520100e-05
8.911268e-01 	 6.538800e-05
8.921690e-01 	 6.564700e-05
8.932113e-01 	 6.585900e-05
8.942535e-01 	 6.585000e-05
8.952958e-01 	 6.568100e-05
8.963380e-01 	 6.534400e-05
8.973803e-01 	 6.517400e-05
8.984225e-01 	 6.509100e-05
8.994648e-01 	 6.517900e-05
9.005070e-01 	 6.537700e-05
9.015493e-01 	 6.562700e-05
9.025915e-01 	 6.575700e-05
9.036338e-01 	 6.575800e-05
9.046761e-01 	 6.556000e-05
9.057183e-01 	 6.527800e-05
9.067606e-01 	 6.506700e-05
9.078028e-01 	 6.500200e-05
9.088451e-01 	 6.513100e-05
9.098873e-01 	 6.539300e-05
9.109296e-01 	 6.557700e-05
9.119718e-01 	 6.565400e-05
9.130141e-01 	 6.557400e-05
9.140563e-01 	 6.537600e-05
9.150986e-01 	 6.509000e-05
9.161408e-01 	 6.494100e-05
9.171831e-01 	 6.500400e-05
9.182253e-01 	 6.523100e-05
9.192676e-01 	 6.552900e-05
9.203099e-01 	 6.575600e-05
9.213521e-01 	 6.578900e-05
9.223944e-01 	 6.564900e-05
9.234366e-01 	 6.539600e-05
9.244789e-01 	 6.516300e-05
9.255211e-01 	 6.505500e-05
9.265634e-01 	 6.510800e-05
9.276056e-01 	 6.534800e-05
9.286479e-01 	 6.556300e-05
9.296901e-01 	 6.574200e-05
9.307324e-01 	 6.569000e-05
9.317746e-01 	 6.557900e-05
9.328169e-01 	 6.534500e-05
9.338591e-01 	 6.517400e-05
9.349014e-01 	 6.518200e-05
9.359437e-01 	 6.531700e-05
9.369859e-01 	 6.558200e-05
9.380282e-01 	 6.578200e-05
9.390704e-01 	 6.589200e-05
9.401127e-01 	 6.575000e-05
9.411549e-01 	 6.551000e-05
9.421972e-01 	 6.523200e-05
9.432394e-01 	 6.506100e-05
9.442817e-01 	 6.508700e-05
9.453239e-01 	 6.528000e-05
9.463662e-01 	 6.558000e-05
9.474084e-01 	 6.575000e-05
9.484507e-01 	 6.583700e-05
9.494930e-01 	 6.578400e-05
9.505352e-01 	 6.555000e-05
9.515775e-01 	 6.525800e-05
9.526197e-01 	 6.510700e-05
9.536620e-01 	 6.516100e-05
9.547042e-01 	 6.542200e-05
9.557465e-01 	 6.565500e-05
9.567887e-01 	 6.580700e-05
9.578310e-01 	 6.583300e-05
9.588732e-01 	 6.561000e-05
9.599155e-01 	 6.532800e-05
9.609577e-01 	 6.514500e-05
9.620000e-01 	 6.509100e-05
9.630422e-01 	 6.522800e-05
9.640845e-01 	 6.545000e-05
9.651268e-01 	 6.571900e-05
9.661690e-01 	 6.578600e-05
9.672113e-01 	 6.578000e-05
9.682535e-01 	 6.558200e-05
9.692958e-01 	 6.531700e-05
9.703380e-01 	 6.509500e-05
9.713803e-01 	 6.504600e-05
9.724225e-01 	 6.521100e-05
9.734648e-01 	 6.546900e-05
9.745070e-01 	 6.566900e-05
9.755493e-01 	 6.575600e-05
9.765915e-01 	 6.570200e-05
9.776338e-01 	 6.548500e-05
9.786761e-01 	 6.526500e-05
9.797183e-01 	 6.507800e-05
9.807606e-01 	 6.510700e-05
9.818028e-01 	 6.530300e-05
9.828451e-01 	 6.556400e-05
9.838873e-01 	 6.577300e-05
9.849296e-01 	 6.579100e-05
9.859718e-01 	 6.566100e-05
9.870141e-01 	 6.546400e-05
9.880563e-01 	 6.519500e-05
9.890986e-01 	 6.506100e-05
9.901408e-01 	 6.510000e-05
9.911831e-01 	 6.531000e-05
9.922253e-01 	 6.562100e-05
9.932676e-01 	 6.579700e-05
9.943099e-01 	 6.583700e-05
9.953521e-01 	 6.567500e-05
9.963944e-01 	 6.538600e-05
9.974366e-01 	 6.512700e-05
9.984789e-01 	 6.507900e-05
9.995211e-01 	 6.516000e-05
1.000563e+00 	 6.537000e-05
1.001606e+00 	 6.560900e-05
1.002648e+00 	 6.572900e-05
1.003690e+00 	 6.570400e-05
1.004732e+00 	 6.555600e-05
1.005775e+00 	 6.537700e-05
1.006817e+00 	 6.519300e-05
1.007859e+00 	 6.520000e-05
1.008901e+00 	 6.534600e-05
1.009944e+00 	 6.561300e-05
1.010986e+00 	 6.581200e-05
1.012028e+00 	 6.592000e-05
1.013070e+00 	 6.582500e-05
1.014113e+00 	 6.559000e-05
1.015155e+00 	 6.534600e-05
1.016197e+00 	 6.517300e-05
1.017239e+00 	 6.519500e-05
1.018282e+00 	 6.543700e-05
1.019324e+00 	 6.568600e-05
1.020366e+00 	 6.585500e-05
1.021408e+00 	 6.588800e-05
1.022451e+00 	 6.573000e-05
1.023493e+00 	 6.545200e-05
1.024535e+00 	 6.521300e-05
1.025578e+00 	 6.514300e-05
1.026620e+00 	 6.518700e-05
1.027662e+00 	 6.535900e-05
1.028704e+00 	 6.560300e-05
1.029747e+00 	 6.575200e-05
1.030789e+00 	 6.578500e-05
1.031831e+00 	 6.565400e-05
1.032873e+00 	 6.545600e-05
1.033915e+00 	 6.525000e-05
1.034958e+00 	 6.522300e-05
1.036000e+00 	 6.532400e-05
1.037042e+00 	 6.558900e-05
1.038085e+00 	 6.583900e-05
1.039127e+00 	 6.592000e-05
1.040169e+00 	 6.582000e-05
1.041211e+00 	 6.557200e-05
1.042253e+00 	 6.524400e-05
1.043296e+00 	 6.500400e-05
1.044338e+00 	 6.500500e-05
1.045380e+00 	 6.517300e-05
1.046423e+00 	 6.541200e-05
1.047465e+00 	 6.570000e-05
1.048507e+00 	 6.582300e-05
1.049549e+00 	 6.578100e-05
1.050592e+00 	 6.553400e-05
1.051634e+00 	 6.530900e-05
1.052676e+00 	 6.520300e-05
1.053718e+00 	 6.520400e-05
1.054761e+00 	 6.540600e-05
1.055803e+00 	 6.560700e-05
1.056845e+00 	 6.575400e-05
1.057887e+00 	 6.579300e-05
1.058930e+00 	 6.558300e-05
1.059972e+00 	 6.531800e-05
1.061014e+00 	 6.510100e-05
1.062056e+00 	 6.506400e-05
1.063099e+00 	 6.513400e-05
1.064141e+00 	 6.539800e-05
1.065183e+00 	 6.566800e-05
1.066225e+00 	 6.583900e-05
1.067268e+00 	 6.585000e-05
1.068310e+00 	 6.565100e-05
1.069352e+00 	 6.534100e-05
1.070394e+00 	 6.513000e-05
1.071437e+00 	 6.508400e-05
1.072479e+00 	 6.516300e-05
1.073521e+00 	 6.536500e-05
1.074563e+00 	 6.556800e-05
1.075606e+00 	 6.568700e-05
1.076648e+00 	 6.561600e-05
1.077690e+00 	 6.546200e-05
1.078732e+00 	 6.527600e-05
1.079775e+00 	 6.514000e-05
1.080817e+00 	 6.516800e-05
1.081859e+00 	 6.535900e-05
1.082901e+00 	 6.566200e-05
1.083944e+00 	 6.584200e-05
1.084986e+00 	 6.584000e-05
1.086028e+00 	 6.570200e-05
1.087070e+00 	 6.546300e-05
1.088113e+00 	 6.515300e-05
1.089155e+00 	 6.497900e-05
1.090197e+00 	 6.497700e-05
1.091239e+00 	 6.509900e-05
1.092282e+00 	 6.541000e-05
1.093324e+00 	 6.561600e-05
1.094366e+00 	 6.564400e-05
1.095408e+00 	 6.555700e-05
1.096451e+00 	 6.535700e-05
1.097493e+00 	 6.519000e-05
1.098535e+00 	 6.515100e-05
1.099578e+00 	 6.522500e-05
1.100620e+00 	 6.541800e-05
1.101662e+00 	 6.563200e-05
1.102704e+00 	 6.568300e-05
1.103747e+00 	 6.559300e-05
1.104789e+00 	 6.532100e-05
1.105831e+00 	 6.505700e-05
1.106873e+00 	 6.483500e-05
1.107916e+00 	 6.484100e-05
1.108958e+00 	 6.496000e-05
1.110000e+00 	 6.518600e-05
1.111042e+00 	 6.540500e-05
1.112085e+00 	 6.560500e-05
1.113127e+00 	 6.552300e-05
1.114169e+00 	 6.535000e-05
1.115211e+00 	 6.513600e-05
1.116254e+00 	 6.498200e-05
1.117296e+00 	 6.498000e-05
1.118338e+00 	 6.515100e-05
1.119380e+00 	 6.535800e-05
1.120423e+00 	 6.552300e-05
1.121465e+00 	 6.553900e-05
1.122507e+00 	 6.534400e-05
1.123549e+00 	 6.509700e-05
1.124592e+00 	 6.480800e-05
1.125634e+00 	 6.477000e-05
1.126676e+00 	 6.484700e-05
1.127718e+00 	 6.506900e-05
1.128761e+00 	 6.526100e-05
1.129803e+00 	 6.545500e-05
1.130845e+00 	 6.548800e-05
1.131887e+00 	 6.534300e-05
1.132930e+00 	 6.514100e-05
1.133972e+00 	 6.490400e-05
1.135014e+00 	 6.491300e-05
1.136056e+00 	 6.503600e-05
1.137099e+00 	 6.523500e-05
1.138141e+00 	 6.539600e-05
1.139183e+00 	 6.546800e-05
1.140225e+00 	 6.541300e-05
1.141268e+00 	 6.519000e-05
1.142310e+00 	 6.492800e-05
1.143352e+00 	 6.475500e-05
1.144394e+00 	 6.480200e-05
1.145437e+00 	 6.494800e-05
1.146479e+00 	 6.517400e-05
1.147521e+00 	 6.544700e-05
1.148563e+00 	 6.552000e-05
1.149606e+00 	 6.550500e-05
1.150648e+00 	 6.534000e-05
1.151690e+00 	 6.506200e-05
1.152732e+00 	 6.489500e-05
1.153775e+00 	 6.488800e-05
1.154817e+00 	 6.502800e-05
1.155859e+00 	 6.521900e-05
1.156901e+00 	 6.538700e-05
1.157944e+00 	 6.540900e-05
1.158986e+00 	 6.528800e-05
1.160028e+00 	 6.506900e-05
1.161070e+00 	 6.482200e-05
1.162113e+00 	 6.468700e-05
1.163155e+00 	 6.479100e-05
1.164197e+00 	 6.501900e-05
1.165239e+00 	 6.531200e-05
1.166282e+00 	 6.549800e-05
1.167324e+00 	 6.553100e-05
1.168366e+00 	 6.536600e-05
1.169408e+00 	 6.510800e-05
1.170451e+00 	 6.486500e-05
1.171493e+00 	 6.481700e-05
1.172535e+00 	 6.493600e-05
1.173577e+00 	 6.511800e-05
1.174620e+00 	 6.528100e-05
1.175662e+00 	 6.530200e-05
1.176704e+00 	 6.523900e-05
1.177747e+00 	 6.505100e-05
1.178789e+00 	 6.479300e-05
1.179831e+00 	 6.467500e-05
1.180873e+00 	 6.470200e-05
1.181915e+00 	 6.490900e-05
1.182958e+00 	 6.521800e-05
1.184000e+00 	 6.541500e-05
1.185042e+00 	 6.546200e-05
1.186084e+00 	 6.534400e-05
1.187127e+00 	 6.509400e-05
1.188169e+00 	 6.480800e-05
1.189211e+00 	 6.467700e-05
1.190253e+00 	 6.465300e-05
1.191296e+00 	 6.481700e-05
1.192338e+00 	 6.502600e-05
1.193380e+00 	 6.524000e-05
1.194422e+00 	 6.523200e-05
1.195465e+00 	 6.507500e-05
1.196507e+00 	 6.489900e-05
1.197549e+00 	 6.475100e-05
1.198592e+00 	 6.470600e-05
1.199634e+00 	 6.484200e-05
1.200676e+00 	 6.507400e-05
1.201718e+00 	 6.526700e-05
1.202761e+00 	 6.534000e-05
1.203803e+00 	 6.526400e-05
1.204845e+00 	 6.504900e-05
1.205887e+00 	 6.481400e-05
1.206930e+00 	 6.459000e-05
1.207972e+00 	 6.454900e-05
1.209014e+00 	 6.466900e-05
1.210056e+00 	 6.482800e-05
1.211099e+00 	 6.503400e-05
1.212141e+00 	 6.514600e-05
1.213183e+00 	 6.508700e-05
1.214225e+00 	 6.493900e-05
1.215268e+00 	 6.471000e-05
1.216310e+00 	 6.461900e-05
1.217352e+00 	 6.468100e-05
1.218394e+00 	 6.487400e-05
1.219437e+00 	 6.507800e-05
1.220479e+00 	 6.526800e-05
1.221521e+00 	 6.526400e-05
1.222563e+00 	 6.507800e-05
1.223606e+00 	 6.481200e-05
1.224648e+00 	 6.459500e-05
1.225690e+00 	 6.444300e-05
1.226732e+00 	 6.449500e-05
1.227775e+00 	 6.471800e-05
1.228817e+00 	 6.496900e-05
1.229859e+00 	 6.520100e-05
1.230901e+00 	 6.521800e-05
1.231944e+00 	 6.513100e-05
1.232986e+00 	 6.494400e-05
1.234028e+00 	 6.473700e-05
1.235070e+00 	 6.470100e-05
1.236113e+00 	 6.476800e-05
1.237155e+00 	 6.496200e-05
1.238197e+00 	 6.513000e-05
1.239239e+00 	 6.520300e-05
1.240282e+00 	 6.515100e-05
1.241324e+00 	 6.497100e-05
1.242366e+00 	 6.477700e-05
1.243408e+00 	 6.460200e-05
1.244451e+00 	 6.454900e-05
1.245493e+00 	 6.468400e-05
1.246535e+00 	 6.493100e-05
1.247578e+00 	 6.518400e-05
1.248620e+00 	 6.525600e-05
1.249662e+00 	 6.515200e-05
1.250704e+00 	 6.501700e-05
1.251747e+00 	 6.480700e-05
1.252789e+00 	 6.468000e-05
1.253831e+00 	 6.463700e-05
1.254873e+00 	 6.477800e-05
1.255915e+00 	 6.496000e-05
1.256958e+00 	 6.504100e-05
1.258000e+00 	 6.503100e-05
1.259042e+00 	 6.492700e-05
1.260085e+00 	 6.473000e-05
1.261127e+00 	 6.458800e-05
1.262169e+00 	 6.453200e-05
1.263211e+00 	 6.460500e-05
1.264253e+00 	 6.478500e-05
1.265296e+00 	 6.503000e-05
1.266338e+00 	 6.518900e-05
1.267380e+00 	 6.511300e-05
1.268423e+00 	 6.504100e-05
1.269465e+00 	 6.486500e-05
1.270507e+00 	 6.471000e-05
1.271549e+00 	 6.457900e-05
1.272592e+00 	 6.469800e-05
1.273634e+00 	 6.487100e-05
1.274676e+00 	 6.505000e-05
1.275718e+00 	 6.507000e-05
1.276761e+00 	 6.501700e-05
1.277803e+00 	 6.489400e-05
1.278845e+00 	 6.467100e-05
1.279887e+00 	 6.452900e-05
1.280930e+00 	 6.456900e-05
1.281972e+00 	 6.471300e-05
1.283014e+00 	 6.495300e-05
1.284056e+00 	 6.512200e-05
1.285099e+00 	 6.513600e-05
1.286141e+00 	 6.503900e-05
1.287183e+00 	 6.482800e-05
1.288225e+00 	 6.466300e-05
1.289268e+00 	 6.452600e-05
1.290310e+00 	 6.451700e-05
1.291352e+00 	 6.462900e-05
1.292394e+00 	 6.485100e-05
1.293437e+00 	 6.500400e-05
1.294479e+00 	 6.501900e-05
1.295521e+00 	 6.498900e-05
1.296563e+00 	 6.478100e-05
1.297606e+00 	 6.462000e-05
1.298648e+00 	 6.458800e-05
1.299690e+00 	 6.462200e-05
1.300732e+00 	 6.483300e-05
1.301775e+00 	 6.498100e-05
1.302817e+00 	 6.507900e-05
1.303859e+00 	 6.504800e-05
1.304901e+00 	 6.485200e-05
1.305944e+00 	 6.463100e-05
1.306986e+00 	 6.445400e-05
1.308028e+00 	 6.448600e-05
1.309070e+00 	 6.460300e-05
1.310113e+00 	 6.480900e-05
1.311155e+00 	 6.502400e-05
1.312197e+00 	 6.513000e-05
1.313239e+00 	 6.513100e-05
1.314282e+00 	 6.495600e-05
1.315324e+00 	 6.476900e-05
1.316366e+00 	 6.468700e-05
1.317408e+00 	 6.468800e-05
1.318451e+00 	 6.478900e-05
1.319493e+00 	 6.503400e-05
1.320535e+00 	 6.522300e-05
1.321578e+00 	 6.528600e-05
1.322620e+00 	 6.521700e-05
1.323662e+00 	 6.500100e-05
1.324704e+00 	 6.478100e-05
1.325747e+00 	 6.471800e-05
1.326789e+00 	 6.473600e-05
1.327831e+00 	 6.489200e-05
1.328873e+00 	 6.507000e-05
1.329916e+00 	 6.525700e-05
1.330958e+00 	 6.529700e-05
1.332000e+00 	 6.519600e-05
1.333042e+00 	 6.503900e-05
1.334085e+00 	 6.492100e-05
1.335127e+00 	 6.480700e-05
1.336169e+00 	 6.491300e-05
1.337211e+00 	 6.509500e-05
1.338253e+00 	 6.521600e-05
1.339296e+00 	 6.528900e-05
1.340338e+00 	 6.525800e-05
1.341380e+00 	 6.513700e-05
1.342423e+00 	 6.492500e-05
1.343465e+00 	 6.485300e-05
1.344507e+00 	 6.483500e-05
1.345549e+00 	 6.493000e-05
1.346592e+00 	 6.510700e-05
1.347634e+00 	 6.529200e-05
1.348676e+00 	 6.542000e-05
1.349718e+00 	 6.537600e-05
1.350761e+00 	 6.520400e-05
1.351803e+00 	 6.496000e-05
1.352845e+00 	 6.477800e-05
1.353887e+00 	 6.481000e-05
1.354930e+00 	 6.491400e-05
1.355972e+00 	 6.506800e-05
1.357014e+00 	 6.522400e-05
1.358056e+00 	 6.529700e-05
1.359099e+00 	 6.521300e-05
1.360141e+00 	 6.502700e-05
1.361183e+00 	 6.481200e-05
1.362225e+00 	 6.471900e-05
1.363268e+00 	 6.470500e-05
1.364310e+00 	 6.488000e-05
1.365352e+00 	 6.510300e-05
1.366394e+00 	 6.526300e-05
1.367437e+00 	 6.527800e-05
1.368479e+00 	 6.515800e-05
1.369521e+00 	 6.497300e-05
1.370563e+00 	 6.482800e-05
1.371606e+00 	 6.474600e-05
1.372648e+00 	 6.477500e-05
1.373690e+00 	 6.489900e-05
1.374732e+00 	 6.511600e-05
1.375775e+00 	 6.518600e-05
1.376817e+00 	 6.516200e-05
1.377859e+00 	 6.500600e-05
1.378901e+00 	 6.480200e-05
1.379944e+00 	 6.466800e-05
1.380986e+00 	 6.465900e-05
1.382028e+00 	 6.481800e-05
1.383070e+00 	 6.493200e-05
1.384113e+00 	 6.507000e-05
1.385155e+00 	 6.516000e-05
1.386197e+00 	 6.505200e-05
1.387239e+00 	 6.493500e-05
1.388282e+00 	 6.474100e-05
1.389324e+00 	 6.461500e-05
1.390366e+00 	 6.465200e-05
1.391408e+00 	 6.481400e-05
1.392451e+00 	 6.499500e-05
1.393493e+00 	 6.515600e-05
1.394535e+00 	 6.523400e-05
1.395577e+00 	 6.517300e-05
1.396620e+00 	 6.503400e-05
1.397662e+00 	 6.486200e-05
1.398704e+00 	 6.476100e-05
1.399747e+00 	 6.477800e-05
1.400789e+00 	 6.491400e-05
1.401831e+00 	 6.510200e-05
1.402873e+00 	 6.521600e-05
1.403916e+00 	 6.519700e-05
1.404958e+00 	 6.511900e-05
1.406000e+00 	 6.498000e-05
1.407042e+00 	 6.484100e-05
1.408085e+00 	 6.486000e-05
1.409127e+00 	 6.493000e-05
1.410169e+00 	 6.509200e-05
1.411211e+00 	 6.519900e-05
1.412254e+00 	 6.529000e-05
1.413296e+00 	 6.517800e-05
1.414338e+00 	 6.504300e-05
1.415380e+00 	 6.480300e-05
1.416423e+00 	 6.467700e-05
1.417465e+00 	 6.466900e-05
1.418507e+00 	 6.477800e-05
1.419549e+00 	 6.490900e-05
1.420592e+00 	 6.505900e-05
1.421634e+00 	 6.513000e-05
1.422676e+00 	 6.509300e-05
1.423718e+00 	 6.495500e-05
1.424761e+00 	 6.480600e-05
1.425803e+00 	 6.465300e-05
1.426845e+00 	 6.468900e-05
1.427887e+00 	 6.481200e-05
1.428930e+00 	 6.492400e-05
1.429972e+00 	 6.505400e-05
1.431014e+00 	 6.504700e-05
1.432056e+00 	 6.500400e-05
1.433099e+00 	 6.486100e-05
1.434141e+00 	 6.472100e-05
1.435183e+00 	 6.468800e-05
1.436225e+00 	 6.468800e-05
1.437268e+00 	 6.484400e-05
1.438310e+00 	 6.501500e-05
1.439352e+00 	 6.510200e-05
1.440394e+00 	 6.518300e-05
1.441437e+00 	 6.507300e-05
1.442479e+00 	 6.489900e-05
1.443521e+00 	 6.471900e-05
1.444563e+00 	 6.461200e-05
1.445606e+00 	 6.473500e-05
1.446648e+00 	 6.488300e-05
1.447690e+00 	 6.499100e-05
1.448732e+00 	 6.505500e-05
1.449775e+00 	 6.505300e-05
1.450817e+00 	 6.493600e-05
1.451859e+00 	 6.481600e-05
1.452901e+00 	 6.470800e-05
1.453944e+00 	 6.473800e-05
1.454986e+00 	 6.480800e-05
1.456028e+00 	 6.496200e-05
1.457070e+00 	 6.508800e-05
1.458113e+00 	 6.516100e-05
1.459155e+00 	 6.506200e-05
1.460197e+00 	 6.489400e-05
1.461239e+00 	 6.480300e-05
1.462282e+00 	 6.472100e-05
1.463324e+00 	 6.473000e-05
1.464366e+00 	 6.481300e-05
1.465408e+00 	 6.493300e-05
1.466451e+00 	 6.503800e-05
1.467493e+00 	 6.510400e-05
1.468535e+00 	 6.503700e-05
1.469577e+00 	 6.488800e-05
1.470620e+00 	 6.473100e-05
1.471662e+00 	 6.466700e-05
1.472704e+00 	 6.465800e-05
1.473747e+00 	 6.476200e-05
1.474789e+00 	 6.491100e-05
1.475831e+00 	 6.495000e-05
1.476873e+00 	 6.496900e-05
1.477915e+00 	 6.488400e-05
1.478958e+00 	 6.472800e-05
1.480000e+00 	 6.460400e-05
1.481042e+00 	 6.461200e-05
1.482085e+00 	 6.466300e-05
1.483127e+00 	 6.482200e-05
1.484169e+00 	 6.499000e-05
1.485211e+00 	 6.505400e-05
1.486253e+00 	 6.499600e-05
1.487296e+00 	 6.488300e-05
1.488338e+00 	 6.472700e-05
1.489380e+00 	 6.462800e-05
1.490422e+00 	 6.463800e-05
1.491465e+00 	 6.472500e-05
1.492507e+00 	 6.480700e-05
1.493549e+00 	 6.499300e-05
1.494592e+00 	 6.501400e-05
1.495634e+00 	 6.494100e-05
1.496676e+00 	 6.486300e-05
1.497718e+00 	 6.470700e-05
1.498761e+00 	 6.463600e-05
1.499803e+00 	 6.463000e-05
1.500845e+00 	 6.467700e-05
1.501887e+00 	 6.480300e-05
1.502930e+00 	 6.488400e-05
1.503972e+00 	 6.492500e-05
1.505014e+00 	 6.483800e-05
1.506056e+00 	 6.473700e-05
1.507099e+00 	 6.462500e-05
1.508141e+00 	 6.451900e-05
1.509183e+00 	 6.453000e-05
1.510225e+00 	 6.466700e-05
1.511268e+00 	 6.479800e-05
1.512310e+00 	 6.494000e-05
1.513352e+00 	 6.490600e-05
1.514394e+00 	 6.479700e-05
1.515437e+00 	 6.467300e-05
1.516479e+00 	 6.452900e-05
1.517521e+00 	 6.445900e-05
1.518563e+00 	 6.449400e-05
1.519606e+00 	 6.461700e-05
1.520648e+00 	 6.479000e-05
1.521690e+00 	 6.489000e-05
1.522732e+00 	 6.485400e-05
1.523775e+00 	 6.472300e-05
1.524817e+00 	 6.459200e-05
1.525859e+00 	 6.450800e-05
1.526901e+00 	 6.450200e-05
1.527944e+00 	 6.460900e-05
1.528986e+00 	 6.473200e-05
1.530028e+00 	 6.480200e-05
1.531070e+00 	 6.486400e-05
1.532113e+00 	 6.487200e-05
1.533155e+00 	 6.475000e-05
1.534197e+00 	 6.458300e-05
1.535239e+00 	 6.443700e-05
1.536282e+00 	 6.449800e-05
1.537324e+00 	 6.459000e-05
1.538366e+00 	 6.472600e-05
1.539408e+00 	 6.482200e-05
1.540451e+00 	 6.485400e-05
1.541493e+00 	 6.477400e-05
1.542535e+00 	 6.464000e-05
1.543578e+00 	 6.453700e-05
1.544620e+00 	 6.441500e-05
1.545662e+00 	 6.447100e-05
1.546704e+00 	 6.454400e-05
1.547747e+00 	 6.470300e-05
1.548789e+00 	 6.479700e-05
1.549831e+00 	 6.476200e-05
1.550873e+00 	 6.469800e-05
1.551916e+00 	 6.457000e-05
1.552958e+00 	 6.444400e-05
1.554000e+00 	 6.447000e-05
1.555042e+00 	 6.449600e-05
1.556085e+00 	 6.460800e-05
1.557127e+00 	 6.470000e-05
1.558169e+00 	 6.476700e-05
1.559211e+00 	 6.475900e-05
1.560253e+00 	 6.466700e-05
1.561296e+00 	 6.453100e-05
1.562338e+00 	 6.446400e-05
1.563380e+00 	 6.445400e-05
1.564423e+00 	 6.458100e-05
1.565465e+00 	 6.472800e-05
1.566507e+00 	 6.483100e-05
1.567549e+00 	 6.488000e-05
1.568592e+00 	 6.481500e-05
1.569634e+00 	 6.463700e-05
1.570676e+00 	 6.446400e-05
1.571718e+00 	 6.441700e-05
1.572761e+00 	 6.441500e-05
1.573803e+00 	 6.447500e-05
1.574845e+00 	 6.460500e-05
1.575887e+00 	 6.471100e-05
1.576930e+00 	 6.473500e-05
1.577972e+00 	 6.475300e-05
1.579014e+00 	 6.460900e-05
1.580056e+00 	 6.452000e-05
1.581099e+00 	 6.447800e-05
1.582141e+00 	 6.453500e-05
1.583183e+00 	 6.464700e-05
1.584225e+00 	 6.473500e-05
1.585268e+00 	 6.478100e-05
1.586310e+00 	 6.479600e-05
1.587352e+00 	 6.466600e-05
1.588394e+00 	 6.454000e-05
1.589437e+00 	 6.446600e-05
1.590479e+00 	 6.443800e-05
1.591521e+00 	 6.452700e-05
1.592563e+00 	 6.465400e-05
1.593606e+00 	 6.478800e-05
1.594648e+00 	 6.485600e-05
1.595690e+00 	 6.481700e-05
1.596732e+00 	 6.468300e-05
1.597775e+00 	 6.457400e-05
1.598817e+00 	 6.444600e-05
1.599859e+00 	 6.443000e-05
1.600901e+00 	 6.446900e-05
1.601944e+00 	 6.457900e-05
1.602986e+00 	 6.467800e-05
1.604028e+00 	 6.471200e-05
1.605070e+00 	 6.466700e-05
1.606113e+00 	 6.457000e-05
1.607155e+00 	 6.444100e-05
1.608197e+00 	 6.441200e-05
1.609239e+00 	 6.442600e-05
1.610282e+00 	 6.447400e-05
1.611324e+00 	 6.456800e-05
1.612366e+00 	 6.464500e-05
1.613408e+00 	 6.469100e-05
1.614451e+00 	 6.461900e-05
1.615493e+00 	 6.451300e-05
1.616535e+00 	 6.439500e-05
1.617578e+00 	 6.438600e-05
1.618620e+00 	 6.439900e-05
1.619662e+00 	 6.456700e-05
1.620704e+00 	 6.467100e-05
1.621747e+00 	 6.476900e-05
1.622789e+00 	 6.476900e-05
1.623831e+00 	 6.467900e-05
1.624873e+00 	 6.451400e-05
1.625916e+00 	 6.444100e-05
1.626958e+00 	 6.443700e-05
1.628000e+00 	 6.449600e-05
1.629042e+00 	 6.457600e-05
1.630085e+00 	 6.468100e-05
1.631127e+00 	 6.473300e-05
1.632169e+00 	 6.470600e-05
1.633211e+00 	 6.461200e-05
1.634254e+00 	 6.451900e-05
1.635296e+00 	 6.445200e-05
1.636338e+00 	 6.447200e-05
1.637380e+00 	 6.457300e-05
1.638423e+00 	 6.459900e-05
1.639465e+00 	 6.467700e-05
1.640507e+00 	 6.469600e-05
1.641549e+00 	 6.466700e-05
1.642592e+00 	 6.455400e-05
1.643634e+00 	 6.442700e-05
1.644676e+00 	 6.437100e-05
1.645718e+00 	 6.439300e-05
1.646761e+00 	 6.442200e-05
1.647803e+00 	 6.447700e-05
1.648845e+00 	 6.453500e-05
1.649887e+00 	 6.458000e-05
1.650930e+00 	 6.454000e-05
1.651972e+00 	 6.445700e-05
1.653014e+00 	 6.433700e-05
1.654056e+00 	 6.431500e-05
1.655099e+00 	 6.433800e-05
1.656141e+00 	 6.440900e-05
1.657183e+00 	 6.448900e-05
1.658225e+00 	 6.455100e-05
1.659268e+00 	 6.455400e-05
1.660310e+00 	 6.451000e-05
1.661352e+00 	 6.437400e-05
1.662394e+00 	 6.427700e-05
1.663437e+00 	 6.426500e-05
1.664479e+00 	 6.428900e-05
1.665521e+00 	 6.440000e-05
1.666563e+00 	 6.452000e-05
1.667606e+00 	 6.459100e-05
1.668648e+00 	 6.456600e-05
1.669690e+00 	 6.449300e-05
1.670732e+00 	 6.436000e-05
1.671775e+00 	 6.435000e-05
1.672817e+00 	 6.430000e-05
1.673859e+00 	 6.436200e-05
1.674901e+00 	 6.442600e-05
1.675944e+00 	 6.451600e-05
1.676986e+00 	 6.452700e-05
1.678028e+00 	 6.449500e-05
1.679070e+00 	 6.441400e-05
1.680113e+00 	 6.435000e-05
1.681155e+00 	 6.432600e-05
1.682197e+00 	 6.436300e-05
1.683239e+00 	 6.443600e-05
1.684282e+00 	 6.448300e-05
1.685324e+00 	 6.456400e-05
1.686366e+00 	 6.456200e-05
1.687408e+00 	 6.454100e-05
1.688451e+00 	 6.443900e-05
1.689493e+00 	 6.435400e-05
1.690535e+00 	 6.426700e-05
1.691577e+00 	 6.433400e-05
1.692620e+00 	 6.442900e-05
1.693662e+00 	 6.450900e-05
1.694704e+00 	 6.461800e-05
1.695747e+00 	 6.458600e-05
1.696789e+00 	 6.447100e-05
1.697831e+00 	 6.439400e-05
1.698873e+00 	 6.428800e-05
1.699915e+00 	 6.425000e-05
1.700958e+00 	 6.431200e-05
1.702000e+00 	 6.439100e-05
1.703042e+00 	 6.446200e-05
1.704085e+00 	 6.451400e-05
1.705127e+00 	 6.446300e-05
1.706169e+00 	 6.437600e-05
1.707211e+00 	 6.431600e-05
1.708253e+00 	 6.430700e-05
1.709296e+00 	 6.426000e-05
1.710338e+00 	 6.428200e-05
1.711380e+00 	 6.440200e-05
1.712422e+00 	 6.447000e-05
1.713465e+00 	 6.452100e-05
1.714507e+00 	 6.454000e-05
1.715549e+00 	 6.443400e-05
1.716592e+00 	 6.429300e-05
1.717634e+00 	 6.429800e-05
1.718676e+00 	 6.433400e-05
1.719718e+00 	 6.438100e-05
1.720761e+00 	 6.452300e-05
1.721803e+00 	 6.458800e-05
1.722845e+00 	 6.457200e-05
1.723887e+00 	 6.456500e-05
1.724930e+00 	 6.448000e-05
1.725972e+00 	 6.440200e-05
1.727014e+00 	 6.436100e-05
1.728056e+00 	 6.439200e-05
1.729099e+00 	 6.446700e-05
1.730141e+00 	 6.454500e-05
1.731183e+00 	 6.455200e-05
1.732225e+00 	 6.456200e-05
1.733268e+00 	 6.450400e-05
1.734310e+00 	 6.440600e-05
1.735352e+00 	 6.429300e-05
1.736394e+00 	 6.429500e-05
1.737437e+00 	 6.434600e-05
1.738479e+00 	 6.451100e-05
1.739521e+00 	 6.456400e-05
1.740563e+00 	 6.458600e-05
1.741606e+00 	 6.462900e-05
1.742648e+00 	 6.454300e-05
1.743690e+00 	 6.445900e-05
1.744732e+00 	 6.434300e-05
1.745775e+00 	 6.434800e-05
1.746817e+00 	 6.437500e-05
1.747859e+00 	 6.446400e-05
1.748901e+00 	 6.454000e-05
1.749944e+00 	 6.458300e-05
1.750986e+00 	 6.454600e-05
1.752028e+00 	 6.442200e-05
1.753070e+00 	 6.431700e-05
1.754113e+00 	 6.430900e-05
1.755155e+00 	 6.426600e-05
1.756197e+00 	 6.432100e-05
1.757239e+00 	 6.442600e-05
1.758282e+00 	 6.448000e-05
1.759324e+00 	 6.446600e-05
1.760366e+00 	 6.441800e-05
1.761408e+00 	 6.434800e-05
1.762451e+00 	 6.429800e-05
1.763493e+00 	 6.425200e-05
1.764535e+00 	 6.431500e-05
1.765578e+00 	 6.442300e-05
1.766620e+00 	 6.444700e-05
1.767662e+00 	 6.451700e-05
1.768704e+00 	 6.452100e-05
1.769747e+00 	 6.440900e-05
1.770789e+00 	 6.431800e-05
1.771831e+00 	 6.424900e-05
1.772873e+00 	 6.417400e-05
1.773916e+00 	 6.423400e-05
1.774958e+00 	 6.432200e-05
1.776000e+00 	 6.441200e-05
1.777042e+00 	 6.438400e-05
1.778085e+00 	 6.442500e-05
1.779127e+00 	 6.434800e-05
1.780169e+00 	 6.424000e-05
1.781211e+00 	 6.420800e-05
1.782254e+00 	 6.418500e-05
1.783296e+00 	 6.424800e-05
1.784338e+00 	 6.437200e-05
1.785380e+00 	 6.443500e-05
1.786423e+00 	 6.444300e-05
1.787465e+00 	 6.444200e-05
1.788507e+00 	 6.435700e-05
1.789549e+00 	 6.430600e-05
1.790592e+00 	 6.425400e-05
1.791634e+00 	 6.429300e-05
1.792676e+00 	 6.438600e-05
1.793718e+00 	 6.442500e-05
1.794761e+00 	 6.448200e-05
1.795803e+00 	 6.446700e-05
1.796845e+00 	 6.441800e-05
1.797887e+00 	 6.435100e-05
1.798930e+00 	 6.427600e-05
1.799972e+00 	 6.429900e-05
1.801014e+00 	 6.432900e-05
1.802056e+00 	 6.441000e-05
1.803099e+00 	 6.448100e-05
1.804141e+00 	 6.453300e-05
1.805183e+00 	 6.452000e-05
1.806225e+00 	 6.447200e-05
1.807268e+00 	 6.437600e-05
1.808310e+00 	 6.428700e-05
1.809352e+00 	 6.427000e-05
1.810394e+00 	 6.433500e-05
1.811437e+00 	 6.435200e-05
1.812479e+00 	 6.443200e-05
1.813521e+00 	 6.440100e-05
1.814563e+00 	 6.440200e-05
1.815606e+00 	 6.434400e-05
1.816648e+00 	 6.435300e-05
1.817690e+00 	 6.427700e-05
1.818732e+00 	 6.423900e-05
1.819775e+00 	 6.421400e-05
1.820817e+00 	 6.427600e-05
1.821859e+00 	 6.433500e-05
1.822901e+00 	 6.440300e-05
1.823944e+00 	 6.439700e-05
1.824986e+00 	 6.436900e-05
1.826028e+00 	 6.429000e-05
1.827070e+00 	 6.423700e-05
1.828113e+00 	 6.423000e-05
1.829155e+00 	 6.431500e-05
1.830197e+00 	 6.443600e-05
1.831239e+00 	 6.445700e-05
1.832282e+00 	 6.446100e-05
1.833324e+00 	 6.444800e-05
1.834366e+00 	 6.431000e-05
1.835408e+00 	 6.427100e-05
1.836451e+00 	 6.424600e-05
1.837493e+00 	 6.428100e-05
1.838535e+00 	 6.432600e-05
1.839578e+00 	 6.442500e-05
1.840620e+00 	 6.449400e-05
1.841662e+00 	 6.446500e-05
1.842704e+00 	 6.445200e-05
1.843747e+00 	 6.436100e-05
1.844789e+00 	 6.428400e-05
1.845831e+00 	 6.423300e-05
1.846873e+00 	 6.431400e-05
1.847916e+00 	 6.437500e-05
1.848958e+00 	 6.440000e-05
1.850000e+00 	 6.446200e-05
1.851042e+00 	 6.441800e-05
1.852084e+00 	 6.444100e-05
1.853127e+00 	 6.438800e-05
1.854169e+00 	 6.434500e-05
1.855211e+00 	 6.429600e-05
1.856254e+00 	 6.436200e-05
1.857296e+00 	 6.439300e-05
1.858338e+00 	 6.443900e-05
1.859380e+00 	 6.448000e-05
1.860423e+00 	 6.443300e-05
1.861465e+00 	 6.435600e-05
1.862507e+00 	 6.432000e-05
1.863549e+00 	 6.428100e-05
1.864592e+00 	 6.429200e-05
1.865634e+00 	 6.437500e-05
1.866676e+00 	 6.442600e-05
1.867718e+00 	 6.447500e-05
1.868761e+00 	 6.457900e-05
1.869803e+00 	 6.449300e-05
1.870845e+00 	 6.444000e-05
1.871887e+00 	 6.437700e-05
1.872930e+00 	 6.433600e-05
1.873972e+00 	 6.441100e-05
1.875014e+00 	 6.444000e-05
1.876056e+00 	 6.453500e-05
1.877099e+00 	 6.452000e-05
1.878141e+00 	 6.455600e-05
1.879183e+00 	 6.458900e-05
1.880225e+00 	 6.444300e-05
1.881268e+00 	 6.437100e-05
1.882310e+00 	 6.433500e-05
1.883352e+00 	 6.437100e-05
1.884394e+00 	 6.444100e-05
1.885437e+00 	 6.452000e-05
1.886479e+00 	 6.454200e-05
1.887521e+00 	 6.453200e-05
1.888563e+00 	 6.449300e-05
1.889606e+00 	 6.438000e-05
1.890648e+00 	 6.431900e-05
1.891690e+00 	 6.434600e-05
1.892732e+00 	 6.440600e-05
1.893775e+00 	 6.445800e-05
1.894817e+00 	 6.448700e-05
1.895859e+00 	 6.452400e-05
1.896901e+00 	 6.449500e-05
1.897944e+00 	 6.440500e-05
1.898986e+00 	 6.436200e-05
1.900028e+00 	 6.432200e-05
1.901070e+00 	 6.436600e-05
1.902113e+00 	 6.441100e-05
1.903155e+00 	 6.443000e-05
1.904197e+00 	 6.450800e-05
1.905239e+00 	 6.451300e-05
1.906282e+00 	 6.449800e-05
1.907324e+00 	 6.443200e-05
1.908366e+00 	 6.439900e-05
1.909408e+00 	 6.439200e-05
1.910451e+00 	 6.443500e-05
1.911493e+00 	 6.448500e-05
1.912535e+00 	 6.460200e-05
1.913578e+00 	 6.467000e-05
1.914620e+00 	 6.465600e-05
1.915662e+00 	 6.457200e-05
1.916704e+00 	 6.451800e-05
1.917747e+00 	 6.444900e-05
1.918789e+00 	 6.445200e-05
1.919831e+00 	 6.451800e-05
1.920873e+00 	 6.455700e-05
1.921916e+00 	 6.463500e-05
1.922958e+00 	 6.466500e-05
1.924000e+00 	 6.460600e-05
1.925042e+00 	 6.458600e-05
1.926085e+00 	 6.456600e-05
1.927127e+00 	 6.444600e-05
1.928169e+00 	 6.443100e-05
1.929211e+00 	 6.446900e-05
1.930254e+00 	 6.452100e-05
1.931296e+00 	 6.457500e-05
1.932338e+00 	 6.461700e-05
1.933380e+00 	 6.462000e-05
1.934423e+00 	 6.454800e-05
1.935465e+00 	 6.448900e-05
1.936507e+00 	 6.446600e-05
1.937549e+00 	 6.445100e-05
1.938592e+00 	 6.445100e-05
1.939634e+00 	 6.451100e-05
1.940676e+00 	 6.459400e-05
1.941718e+00 	 6.459200e-05
1.942761e+00 	 6.454000e-05
1.943803e+00 	 6.444700e-05
1.944845e+00 	 6.441700e-05
1.945887e+00 	 6.431700e-05
1.946930e+00 	 6.433100e-05
1.947972e+00 	 6.436200e-05
1.949014e+00 	 6.441000e-05
1.950056e+00 	 6.442500e-05
1.951099e+00 	 6.445200e-05
1.952141e+00 	 6.440800e-05
1.953183e+00 	 6.432300e-05
1.954225e+00 	 6.428500e-05
1.955268e+00 	 6.424700e-05
1.956310e+00 	 6.430000e-05
1.957352e+00 	 6.434900e-05
1.958394e+00 	 6.432100e-05
1.959437e+00 	 6.436100e-05
1.960479e+00 	 6.436400e-05
1.961521e+00 	 6.436200e-05
1.962563e+00 	 6.432800e-05
1.963606e+00 	 6.431400e-05
1.964648e+00 	 6.429300e-05
1.965690e+00 	 6.434000e-05
1.966732e+00 	 6.437200e-05
1.967775e+00 	 6.441900e-05
1.968817e+00 	 6.443800e-05
1.969859e+00 	 6.440500e-05
1.970901e+00 	 6.433700e-05
1.971944e+00 	 6.430000e-05
1.972986e+00 	 6.424700e-05
1.974028e+00 	 6.424500e-05
1.975070e+00 	 6.435900e-05
1.976113e+00 	 6.443900e-05
1.977155e+00 	 6.446100e-05
1.978197e+00 	 6.452600e-05
1.979239e+00 	 6.445700e-05
1.980282e+00 	 6.436800e-05
1.981324e+00 	 6.432100e-05
1.982366e+00 	 6.432600e-05
1.983408e+00 	 6.426500e-05
1.984451e+00 	 6.429300e-05
1.985493e+00 	 6.438300e-05
1.986535e+00 	 6.440500e-05
1.987578e+00 	 6.447600e-05
1.988620e+00 	 6.445900e-05
1.989662e+00 	 6.441500e-05
1.990704e+00 	 6.433600e-05
1.991747e+00 	 6.427200e-05
1.992789e+00 	 6.422500e-05
1.993831e+00 	 6.428400e-05
1.994873e+00 	 6.436200e-05
1.995916e+00 	 6.434900e-05
1.996958e+00 	 6.439300e-05
1.998000e+00 	 6.435200e-05
1.999042e+00 	 6.430800e-05
2.000084e+00 	 6.427700e-05
2.001127e+00 	 6.429600e-05
2.002169e+00 	 6.432000e-05
2.003211e+00 	 6.436900e-05
2.004254e+00 	 6.444900e-05
2.005296e+00 	 6.443300e-05
2.006338e+00 	 6.440200e-05
2.007380e+00 	 6.431300e-05
2.008422e+00 	 6.423300e-05
2.009465e+00 	 6.423400e-05
2.010507e+00 	 6.420800e-05
2.011549e+00 	 6.424100e-05
2.012592e+00 	 6.432000e-05
2.013634e+00 	 6.443300e-05
2.014676e+00 	 6.442600e-05
2.015718e+00 	 6.437800e-05
2.016761e+00 	 6.438200e-05
2.017803e+00 	 6.435800e-05
2.018845e+00 	 6.430700e-05
2.019887e+00 	 6.434200e-05
2.020930e+00 	 6.436400e-05
2.021972e+00 	 6.445000e-05
2.023014e+00 	 6.448700e-05
2.024056e+00 	 6.444200e-05
2.025099e+00 	 6.444700e-05
2.026141e+00 	 6.441400e-05
2.027183e+00 	 6.437300e-05
2.028225e+00 	 6.434000e-05
2.029268e+00 	 6.439400e-05
2.030310e+00 	 6.444400e-05
2.031352e+00 	 6.454500e-05
2.032394e+00 	 6.453500e-05
2.033437e+00 	 6.449300e-05
2.034479e+00 	 6.446500e-05
2.035521e+00 	 6.436000e-05
2.036563e+00 	 6.437100e-05
2.037606e+00 	 6.434800e-05
2.038648e+00 	 6.436300e-05
2.039690e+00 	 6.443800e-05
2.040732e+00 	 6.452100e-05
2.041775e+00 	 6.453500e-05
2.042817e+00 	 6.448200e-05
2.043859e+00 	 6.446200e-05
2.044901e+00 	 6.438300e-05
2.045944e+00 	 6.439200e-05
2.046986e+00 	 6.433500e-05
2.048028e+00 	 6.440000e-05
2.049070e+00 	 6.442400e-05
2.050113e+00 	 6.450000e-05
2.051155e+00 	 6.450500e-05
2.052197e+00 	 6.446600e-05
2.053239e+00 	 6.442400e-05
2.054282e+00 	 6.433300e-05
2.055324e+00 	 6.428300e-05
2.056366e+00 	 6.431300e-05
2.057408e+00 	 6.433700e-05
2.058451e+00 	 6.436500e-05
2.059493e+00 	 6.438800e-05
2.060535e+00 	 6.443500e-05
2.061578e+00 	 6.441600e-05
2.062620e+00 	 6.436800e-05
2.063662e+00 	 6.432900e-05
2.064704e+00 	 6.425400e-05
2.065747e+00 	 6.425700e-05
2.066789e+00 	 6.430600e-05
2.067831e+00 	 6.438500e-05
2.068873e+00 	 6.438700e-05
2.069916e+00 	 6.438500e-05
2.070958e+00 	 6.440200e-05
2.072000e+00 	 6.432700e-05
2.073042e+00 	 6.433600e-05
2.074084e+00 	 6.425400e-05
2.075127e+00 	 6.431700e-05
2.076169e+00 	 6.437600e-05
2.077211e+00 	 6.437700e-05
2.078254e+00 	 6.437500e-05
2.079296e+00 	 6.440400e-05
2.080338e+00 	 6.437300e-05
2.081380e+00 	 6.431700e-05
2.082422e+00 	 6.431300e-05
2.083465e+00 	 6.432800e-05
2.084507e+00 	 6.437600e-05
2.085549e+00 	 6.440100e-05
2.086591e+00 	 6.446400e-05
2.087634e+00 	 6.447500e-05
2.088676e+00 	 6.451300e-05
2.089718e+00 	 6.447000e-05
2.090761e+00 	 6.443100e-05
2.091803e+00 	 6.436500e-05
2.092845e+00 	 6.437400e-05
2.093887e+00 	 6.438700e-05
2.094930e+00 	 6.439500e-05
2.095972e+00 	 6.445700e-05
2.097014e+00 	 6.442700e-05
2.098056e+00 	 6.438100e-05
2.099099e+00 	 6.434700e-05
2.100141e+00 	 6.437100e-05
2.101183e+00 	 6.433900e-05
2.102225e+00 	 6.432300e-05
2.103268e+00 	 6.431000e-05
2.104310e+00 	 6.440700e-05
2.105352e+00 	 6.442600e-05
2.106394e+00 	 6.440200e-05
2.107437e+00 	 6.441300e-05
2.108479e+00 	 6.433900e-05
2.109521e+00 	 6.427300e-05
2.110563e+00 	 6.425600e-05
2.111606e+00 	 6.434100e-05
2.112648e+00 	 6.440600e-05
2.113690e+00 	 6.445400e-05
2.114732e+00 	 6.450600e-05
2.115775e+00 	 6.449500e-05
2.116817e+00 	 6.442700e-05
2.117859e+00 	 6.435500e-05
2.118901e+00 	 6.432100e-05
2.119944e+00 	 6.431400e-05
2.120986e+00 	 6.424800e-05
2.122028e+00 	 6.433700e-05
2.123070e+00 	 6.441000e-05
2.124113e+00 	 6.444300e-05
2.125155e+00 	 6.447800e-05
2.126197e+00 	 6.439000e-05
2.127239e+00 	 6.434100e-05
2.128282e+00 	 6.433500e-05
2.129324e+00 	 6.428400e-05
2.130366e+00 	 6.424100e-05
2.131408e+00 	 6.434200e-05
2.132451e+00 	 6.429400e-05
2.133493e+00 	 6.431000e-05
2.134535e+00 	 6.433400e-05
2.135578e+00 	 6.430000e-05
2.136620e+00 	 6.427400e-05
2.137662e+00 	 6.423800e-05
2.138704e+00 	 6.422700e-05
2.139747e+00 	 6.429900e-05
2.140789e+00 	 6.438600e-05
2.141831e+00 	 6.443400e-05
2.142873e+00 	 6.445400e-05
2.143916e+00 	 6.437800e-05
2.144958e+00 	 6.432400e-05
2.146000e+00 	 6.428000e-05
2.147042e+00 	 6.425100e-05
2.148085e+00 	 6.432300e-05
2.149127e+00 	 6.438500e-05
2.150169e+00 	 6.440600e-05
2.151211e+00 	 6.442300e-05
2.152254e+00 	 6.444600e-05
2.153296e+00 	 6.440000e-05
2.154338e+00 	 6.434800e-05
2.155380e+00 	 6.431100e-05
2.156423e+00 	 6.426300e-05
2.157465e+00 	 6.428200e-05
2.158507e+00 	 6.436000e-05
2.159549e+00 	 6.444200e-05
2.160591e+00 	 6.447900e-05
2.161634e+00 	 6.440900e-05
2.162676e+00 	 6.432500e-05
2.163718e+00 	 6.429900e-05
2.164761e+00 	 6.425300e-05
2.165803e+00 	 6.426000e-05
2.166845e+00 	 6.432100e-05
2.167887e+00 	 6.433000e-05
2.168930e+00 	 6.427200e-05
2.169972e+00 	 6.432000e-05
2.171014e+00 	 6.429800e-05
2.172056e+00 	 6.423900e-05
2.173099e+00 	 6.426000e-05
2.174141e+00 	 6.422400e-05
2.175183e+00 	 6.423600e-05
2.176225e+00 	 6.427700e-05
2.177268e+00 	 6.429300e-05
2.178310e+00 	 6.431800e-05
2.179352e+00 	 6.435200e-05
2.180394e+00 	 6.434000e-05
2.181437e+00 	 6.430100e-05
2.182479e+00 	 6.430700e-05
2.183521e+00 	 6.436100e-05
2.184563e+00 	 6.433300e-05
2.185606e+00 	 6.434300e-05
2.186648e+00 	 6.437500e-05
2.187690e+00 	 6.437300e-05
2.188732e+00 	 6.440900e-05
2.189775e+00 	 6.436400e-05
2.190817e+00 	 6.435400e-05
2.191859e+00 	 6.432400e-05
2.192901e+00 	 6.428100e-05
2.193944e+00 	 6.432200e-05
2.194986e+00 	 6.434900e-05
2.196028e+00 	 6.441800e-05
2.197070e+00 	 6.444800e-05
2.198113e+00 	 6.441400e-05
2.199155e+00 	 6.435600e-05
2.200197e+00 	 6.434900e-05
2.201239e+00 	 6.431000e-05
2.202282e+00 	 6.428900e-05
2.203324e+00 	 6.432300e-05
2.204366e+00 	 6.433100e-05
2.205408e+00 	 6.429200e-05
2.206451e+00 	 6.433800e-05
2.207493e+00 	 6.434100e-05
2.208535e+00 	 6.427400e-05
2.209578e+00 	 6.424200e-05
2.210620e+00 	 6.426000e-05
2.211662e+00 	 6.424700e-05
2.212704e+00 	 6.426000e-05
2.213747e+00 	 6.425000e-05
2.214789e+00 	 6.428300e-05
2.215831e+00 	 6.428900e-05
2.216873e+00 	 6.425000e-05
2.217916e+00 	 6.426200e-05
2.218958e+00 	 6.417700e-05
2.220000e+00 	 6.416100e-05
2.221042e+00 	 6.416000e-05
2.222085e+00 	 6.420000e-05
2.223127e+00 	 6.422500e-05
2.224169e+00 	 6.424300e-05
2.225211e+00 	 6.422100e-05
2.226254e+00 	 6.422600e-05
2.227296e+00 	 6.421200e-05
2.228338e+00 	 6.415700e-05
2.229380e+00 	 6.419900e-05
2.230423e+00 	 6.419700e-05
2.231465e+00 	 6.419300e-05
2.232507e+00 	 6.423700e-05
2.233549e+00 	 6.424300e-05
2.234592e+00 	 6.424500e-05
2.235634e+00 	 6.421700e-05
2.236676e+00 	 6.419800e-05
2.237718e+00 	 6.414000e-05
2.238761e+00 	 6.416600e-05
2.239803e+00 	 6.420400e-05
2.240845e+00 	 6.422800e-05
2.241887e+00 	 6.426100e-05
2.242930e+00 	 6.428000e-05
2.243972e+00 	 6.424000e-05
2.245014e+00 	 6.423400e-05
2.246056e+00 	 6.421500e-05
2.247099e+00 	 6.420400e-05
2.248141e+00 	 6.423500e-05
2.249183e+00 	 6.425200e-05
2.250225e+00 	 6.430600e-05
2.251268e+00 	 6.434200e-05
2.252310e+00 	 6.435900e-05
2.253352e+00 	 6.437000e-05
2.254394e+00 	 6.430000e-05
2.255437e+00 	 6.422300e-05
2.256479e+00 	 6.417000e-05
2.257521e+00 	 6.419700e-05
2.258563e+00 	 6.420100e-05
2.259606e+00 	 6.428600e-05
2.260648e+00 	 6.428600e-05
2.261690e+00 	 6.429000e-05
2.262732e+00 	 6.426400e-05
2.263775e+00 	 6.424700e-05
2.264817e+00 	 6.421600e-05
2.265859e+00 	 6.421500e-05
2.266901e+00 	 6.420100e-05
2.267944e+00 	 6.422900e-05
2.268986e+00 	 6.426100e-05
2.270028e+00 	 6.422900e-05
2.271070e+00 	 6.420800e-05
2.272113e+00 	 6.411800e-05
2.273155e+00 	 6.414200e-05
2.274197e+00 	 6.415100e-05
2.275239e+00 	 6.418000e-05
2.276282e+00 	 6.418700e-05
2.277324e+00 	 6.427000e-05
2.278366e+00 	 6.426900e-05
2.279408e+00 	 6.431500e-05
2.280451e+00 	 6.425400e-05
2.281493e+00 	 6.419200e-05
2.282535e+00 	 6.416700e-05
2.283578e+00 	 6.412800e-05
2.284620e+00 	 6.413500e-05
2.285662e+00 	 6.418800e-05
2.286704e+00 	 6.424200e-05
2.287747e+00 	 6.425700e-05
2.288789e+00 	 6.425400e-05
2.289831e+00 	 6.425400e-05
2.290873e+00 	 6.418300e-05
2.291915e+00 	 6.420100e-05
2.292958e+00 	 6.416300e-05
2.294000e+00 	 6.419000e-05
2.295042e+00 	 6.418200e-05
2.296085e+00 	 6.425500e-05
2.297127e+00 	 6.427600e-05
2.298169e+00 	 6.427100e-05
2.299211e+00 	 6.427000e-05
2.300254e+00 	 6.421300e-05
2.301296e+00 	 6.422900e-05
2.302338e+00 	 6.421500e-05
2.303380e+00 	 6.424300e-05
2.304423e+00 	 6.424800e-05
2.305465e+00 	 6.426800e-05
2.306507e+00 	 6.425300e-05
2.307549e+00 	 6.426800e-05
2.308592e+00 	 6.419700e-05
2.309634e+00 	 6.417200e-05
2.310676e+00 	 6.414900e-05
2.311718e+00 	 6.418600e-05
2.312761e+00 	 6.420000e-05
2.313803e+00 	 6.421300e-05
2.314845e+00 	 6.424600e-05
2.315887e+00 	 6.425100e-05
2.316930e+00 	 6.426300e-05
2.317972e+00 	 6.423100e-05
2.319014e+00 	 6.418900e-05
2.320056e+00 	 6.420100e-05
2.321099e+00 	 6.424800e-05
2.322141e+00 	 6.422800e-05
2.323183e+00 	 6.425500e-05
2.324225e+00 	 6.424000e-05
2.325268e+00 	 6.427700e-05
